Angle,Intensity
20,814
20.0102,809
20.0204,786
20.0306,793
20.0408,779
20.051,795
20.0612,791
20.0714,758
20.0815,792
20.0917,741
20.1019,837
20.1121,829
20.1223,787
20.1325,784
20.1427,749
20.1529,785
20.1631,829
20.1733,792
20.1835,817
20.1937,751
20.2039,779
20.2141,746
20.2242,807
20.2344,753
20.2446,803
20.2548,747
20.265,815
20.2752,775
20.2854,727
20.2956,781
20.3058,794
20.316,789
20.3262,774
20.3364,811
20.3466,828
20.3568,749
20.3669,809
20.3771,731
20.3873,766
20.3975,804
20.4077,726
20.4179,841
20.4281,802
20.4383,838
20.4485,811
20.4587,792
20.4689,778
20.4791,799
20.4893,745
20.4995,796
20.5096,790
20.5198,775
20.53,746
20.5402,725
20.5504,780
20.5606,790
20.5708,769
20.581,730
20.5912,795
20.6014,765
20.6116,757
20.6218,780
20.632,812
20.6422,757
20.6523,775
20.6625,735
20.6727,739
20.6829,727
20.6931,756
20.7033,778
20.7135,719
20.7237,720
20.7339,787
20.7441,737
20.7543,771
20.7645,750
20.7747,778
20.7849,729
20.795,768
20.8052,743
20.8154,747
20.8256,738
20.8358,720
20.846,706
20.8562,761
20.8664,794
20.8766,765
20.8868,746
20.897,798
20.9072,754
20.9174,795
20.9276,775
20.9377,759
20.9479,779
20.9581,764
20.9683,707
20.9785,691
20.9887,753
20.9989,736
21.0091,733
21.0193,777
21.0295,700
21.0397,745
21.0499,753
21.0601,756
21.0703,737
21.0804,727
21.0906,716
21.1008,764
21.111,782
21.1212,701
21.1314,757
21.1416,759
21.1518,720
21.162,729
21.1722,765
21.1824,727
21.1926,716
21.2028,733
21.213,693
21.2231,709
21.2333,717
21.2435,718
21.2537,730
21.2639,705
21.2741,732
21.2843,748
21.2945,712
21.3047,753
21.3149,735
21.3251,713
21.3353,731
21.3455,704
21.3557,710
21.3658,737
21.376,704
21.3862,743
21.3964,689
21.4066,723
21.4168,729
21.427,729
21.4372,700
21.4474,712
21.4576,744
21.4678,751
21.478,705
21.4882,693
21.4984,693
21.5085,726
21.5187,726
21.5289,698
21.5391,678
21.5493,697
21.5595,689
21.5697,677
21.5799,714
21.5901,754
21.6003,706
21.6105,716
21.6207,719
21.6309,752
21.6411,704
21.6512,719
21.6614,677
21.6716,700
21.6818,683
21.692,698
21.7022,712
21.7124,730
21.7226,699
21.7328,664
21.743,698
21.7532,672
21.7634,694
21.7736,709
21.7838,663
21.7939,709
21.8041,728
21.8143,702
21.8245,699
21.8347,692
21.8449,679
21.8551,690
21.8653,690
21.8755,680
21.8857,737
21.8959,679
21.9061,680
21.9163,683
21.9265,718
21.9366,697
21.9468,677
21.957,698
21.9672,676
21.9774,631
21.9876,730
21.9978,689
22.008,682
22.0182,662
22.0284,695
22.0386,689
22.0488,693
22.059,715
22.0692,670
22.0793,635
22.0895,683
22.0997,714
22.1099,685
22.1201,670
22.1303,644
22.1405,702
22.1507,660
22.1609,657
22.1711,679
22.1813,682
22.1915,688
22.2017,666
22.2119,679
22.222,681
22.2322,675
22.2424,694
22.2526,653
22.2628,696
22.273,650
22.2832,607
22.2934,687
22.3036,662
22.3138,661
22.324,688
22.3342,669
22.3444,653
22.3546,650
22.3647,646
22.3749,696
22.3851,650
22.3953,681
22.4055,650
22.4157,651
22.4259,655
22.4361,585
22.4463,659
22.4565,643
22.4667,705
22.4769,662
22.4871,694
22.4973,616
22.5074,668
22.5176,652
22.5278,664
22.538,640
22.5482,713
22.5584,628
22.5686,658
22.5788,653
22.589,615
22.5992,648
22.6094,692
22.6196,655
22.6298,662
22.64,612
22.6501,618
22.6603,642
22.6705,638
22.6807,618
22.6909,634
22.7011,629
22.7113,667
22.7215,672
22.7317,653
22.7419,607
22.7521,635
22.7623,623
22.7725,600
22.7827,604
22.7928,646
22.803,673
22.8132,655
22.8234,593
22.8336,630
22.8438,625
22.854,604
22.8642,624
22.8744,664
22.8846,620
22.8948,604
22.905,626
22.9152,664
22.9254,664
22.9355,642
22.9457,639
22.9559,621
22.9661,598
22.9763,616
22.9865,632
22.9967,645
23.0069,612
23.0171,641
23.0273,600
23.0375,644
23.0477,615
23.0579,610
23.0681,597
23.0782,624
23.0884,629
23.0986,615
23.1088,641
23.119,617
23.1292,647
23.1394,650
23.1496,630
23.1598,650
23.17,647
23.1802,614
23.1904,651
23.2006,646
23.2108,554
23.2209,615
23.2311,604
23.2413,632
23.2515,646
23.2617,597
23.2719,630
23.2821,652
23.2923,589
23.3025,599
23.3127,599
23.3229,600
23.3331,622
23.3433,622
23.3535,625
23.3636,545
23.3738,640
23.384,573
23.3942,586
23.4044,592
23.4146,649
23.4248,570
23.435,574
23.4452,639
23.4554,566
23.4656,575
23.4758,587
23.486,595
23.4962,623
23.5063,587
23.5165,614
23.5267,593
23.5369,655
23.5471,623
23.5573,643
23.5675,624
23.5777,618
23.5879,587
23.5981,579
23.6083,618
23.6185,602
23.6287,628
23.6389,624
23.649,564
23.6592,609
23.6694,610
23.6796,600
23.6898,638
23.7,575
23.7102,533
23.7204,667
23.7306,581
23.7408,611
23.751,592
23.7612,568
23.7714,587
23.7816,630
23.7917,581
23.8019,612
23.8121,618
23.8223,591
23.8325,567
23.8427,616
23.8529,599
23.8631,612
23.8733,591
23.8835,623
23.8937,630
23.9039,618
23.9141,590
23.9243,546
23.9344,609
23.9446,583
23.9548,588
23.965,572
23.9752,625
23.9854,590
23.9956,633
24.0058,605
24.016,552
24.0262,566
24.0364,563
24.0466,582
24.0568,602
24.067,588
24.0771,606
24.0873,581
24.0975,568
24.1077,614
24.1179,603
24.1281,609
24.1383,600
24.1485,597
24.1587,561
24.1689,607
24.1791,616
24.1893,632
24.1995,635
24.2097,610
24.2198,600
24.23,653
24.2402,610
24.2504,615
24.2606,582
24.2708,603
24.281,655
24.2912,641
24.3014,597
24.3116,619
24.3218,639
24.332,587
24.3422,631
24.3524,612
24.3625,630
24.3727,634
24.3829,590
24.3931,611
24.4033,633
24.4135,610
24.4237,578
24.4339,627
24.4441,650
24.4543,606
24.4645,643
24.4747,607
24.4849,613
24.4951,642
24.5052,610
24.5154,599
24.5256,624
24.5358,645
24.546,649
24.5562,613
24.5664,640
24.5766,666
24.5868,597
24.597,636
24.6072,672
24.6174,664
24.6276,661
24.6378,674
24.6479,667
24.6581,643
24.6683,606
24.6785,653
24.6887,632
24.6989,660
24.7091,720
24.7193,643
24.7295,637
24.7397,689
24.7499,654
24.7601,645
24.7703,639
24.7805,666
24.7906,645
24.8008,669
24.811,652
24.8212,609
24.8314,728
24.8416,681
24.8518,684
24.862,707
24.8722,679
24.8824,712
24.8926,669
24.9028,695
24.913,661
24.9232,703
24.9333,671
24.9435,658
24.9537,703
24.9639,688
24.9741,672
24.9843,672
24.9945,651
25.0047,698
25.0149,716
25.0251,690
25.0353,706
25.0455,681
25.0557,763
25.0659,672
25.076,737
25.0862,663
25.0964,692
25.1066,693
25.1168,736
25.127,675
25.1372,740
25.1474,667
25.1576,681
25.1678,713
25.178,722
25.1882,779
25.1984,718
25.2086,713
25.2187,737
25.2289,764
25.2391,728
25.2493,776
25.2595,758
25.2697,743
25.2799,783
25.2901,734
25.3003,790
25.3105,796
25.3207,802
25.3309,774
25.3411,696
25.3513,742
25.3614,771
25.3716,772
25.3818,756
25.392,743
25.4022,781
25.4124,764
25.4226,860
25.4328,757
25.443,783
25.4532,797
25.4634,774
25.4736,839
25.4838,770
25.494,792
25.5041,752
25.5143,777
25.5245,800
25.5347,845
25.5449,780
25.5551,824
25.5653,797
25.5755,821
25.5857,821
25.5959,834
25.6061,803
25.6163,848
25.6265,841
25.6367,802
25.6468,860
25.657,804
25.6672,835
25.6774,811
25.6876,801
25.6978,872
25.708,852
25.7182,813
25.7284,831
25.7386,819
25.7488,825
25.759,876
25.7692,851
25.7794,877
25.7895,856
25.7997,887
25.8099,865
25.8201,905
25.8303,869
25.8405,884
25.8507,874
25.8609,866
25.8711,905
25.8813,910
25.8915,932
25.9017,887
25.9119,866
25.9221,920
25.9322,905
25.9424,881
25.9526,952
25.9628,956
25.973,921
25.9832,921
25.9934,936
26.0036,874
26.0138,923
26.024,900
26.0342,938
26.0444,922
26.0546,936
26.0648,976
26.075,965
26.0851,933
26.0953,908
26.1055,918
26.1157,955
26.1259,995
26.1361,893
26.1463,989
26.1565,967
26.1667,940
26.1769,1043
26.1871,981
26.1973,978
26.2075,956
26.2177,1036
26.2278,999
26.238,948
26.2482,1021
26.2584,950
26.2686,932
26.2788,989
26.289,1016
26.2992,1016
26.3094,971
26.3196,1079
26.3298,1001
26.34,1041
26.3502,1041
26.3604,956
26.3705,979
26.3807,1034
26.3909,1067
26.4011,1031
26.4113,1032
26.4215,1048
26.4317,1002
26.4419,1004
26.4521,1107
26.4623,1074
26.4725,1003
26.4827,1131
26.4929,1048
26.5031,1095
26.5132,1108
26.5234,1073
26.5336,1104
26.5438,1108
26.554,1078
26.5642,1107
26.5744,1010
26.5846,1105
26.5948,1041
26.605,1124
26.6152,1158
26.6254,1049
26.6356,1105
26.6458,1094
26.6559,1139
26.6661,1125
26.6763,1134
26.6865,1144
26.6967,1131
26.7069,1162
26.7171,1085
26.7273,1181
26.7375,1086
26.7477,1168
26.7579,1129
26.7681,1167
26.7783,1123
26.7885,1165
26.7986,1123
26.8088,1152
26.819,1154
26.8292,1171
26.8394,1203
26.8496,1151
26.8598,1158
26.87,1190
26.8802,1243
26.8904,1215
26.9006,1231
26.9108,1174
26.921,1226
26.9312,1185
26.9413,1247
26.9515,1182
26.9617,1182
26.9719,1236
26.9821,1258
26.9923,1221
27.0025,1189
27.0127,1251
27.0229,1281
27.0331,1212
27.0433,1252
27.0535,1258
27.0637,1267
27.0739,1238
27.084,1268
27.0942,1270
27.1044,1215
27.1146,1302
27.1248,1305
27.135,1245
27.1452,1284
27.1554,1270
27.1656,1208
27.1758,1343
27.186,1322
27.1962,1246
27.2064,1309
27.2166,1279
27.2267,1367
27.2369,1328
27.2471,1330
27.2573,1290
27.2675,1315
27.2777,1352
27.2879,1321
27.2981,1302
27.3083,1291
27.3185,1338
27.3287,1410
27.3389,1380
27.3491,1375
27.3593,1412
27.3694,1319
27.3796,1332
27.3898,1306
27.4,1378
27.4102,1353
27.4204,1334
27.4306,1314
27.4408,1416
27.451,1288
27.4612,1371
27.4714,1380
27.4816,1406
27.4918,1391
27.502,1437
27.5121,1412
27.5223,1382
27.5325,1498
27.5427,1408
27.5529,1391
27.5631,1369
27.5733,1460
27.5835,1435
27.5937,1492
27.6039,1415
27.6141,1411
27.6243,1462
27.6345,1403
27.6447,1442
27.6548,1436
27.665,1451
27.6752,1430
27.6854,1505
27.6956,1420
27.7058,1500
27.716,1485
27.7262,1463
27.7364,1466
27.7466,1481
27.7568,1452
27.767,1489
27.7772,1490
27.7874,1439
27.7975,1538
27.8077,1476
27.8179,1560
27.8281,1518
27.8383,1514
27.8485,1493
27.8587,1558
27.8689,1516
27.8791,1525
27.8893,1553
27.8995,1504
27.9097,1585
27.9199,1537
27.9301,1592
27.9402,1521
27.9504,1598
27.9606,1598
27.9708,1526
27.981,1595
27.9912,1536
28.0014,1594
28.0116,1561
28.0218,1599
28.032,1617
28.0422,1575
28.0524,1589
28.0626,1631
28.0728,1656
28.0829,1588
28.0931,1551
28.1033,1633
28.1135,1681
28.1237,1602
28.1339,1614
28.1441,1586
28.1543,1626
28.1645,1686
28.1747,1698
28.1849,1622
28.1951,1587
28.2053,1610
28.2155,1711
28.2256,1652
28.2358,1678
28.246,1657
28.2562,1647
28.2664,1665
28.2766,1672
28.2868,1705
28.297,1675
28.3072,1702
28.3174,1675
28.3276,1745
28.3378,1656
28.348,1686
28.3582,1709
28.3683,1763
28.3785,1760
28.3887,1712
28.3989,1718
28.4091,1696
28.4193,1763
28.4295,1768
28.4397,1789
28.4499,1824
28.4601,1751
28.4703,1713
28.4805,1731
28.4907,1756
28.5009,1704
28.511,1749
28.5212,1818
28.5314,1752
28.5416,1765
28.5518,1706
28.562,1862
28.5722,1727
28.5824,1713
28.5926,1809
28.6028,1842
28.613,1806
28.6232,1803
28.6334,1757
28.6436,1824
28.6537,1824
28.6639,1772
28.6741,1819
28.6843,1862
28.6945,1872
28.7047,1883
28.7149,1867
28.7251,1788
28.7353,1843
28.7455,1880
28.7557,1823
28.7659,1869
28.7761,1879
28.7863,1861
28.7964,1738
28.8066,1819
28.8168,1871
28.827,1854
28.8372,1816
28.8474,1917
28.8576,1833
28.8678,1853
28.878,1898
28.8882,1828
28.8984,1897
28.9086,1877
28.9188,1922
28.929,1909
28.9391,1896
28.9493,1921
28.9595,1956
28.9697,1900
28.9799,2029
28.9901,1975
29.0003,1901
29.0105,1909
29.0207,1838
29.0309,1911
29.0411,1953
29.0513,1964
29.0615,1916
29.0717,1914
29.0818,1915
29.092,1931
29.1022,2005
29.1124,2009
29.1226,1924
29.1328,1983
29.143,1918
29.1532,2038
29.1634,2043
29.1736,1985
29.1838,1914
29.194,1976
29.2042,1870
29.2144,1962
29.2245,1950
29.2347,1908
29.2449,1949
29.2551,2003
29.2653,1991
29.2755,1998
29.2857,1990
29.2959,2113
29.3061,2062
29.3163,2001
29.3265,2068
29.3367,2031
29.3469,2042
29.3571,2027
29.3672,2026
29.3774,1988
29.3876,1974
29.3978,2077
29.408,2087
29.4182,2093
29.4284,2073
29.4386,1981
29.4488,2137
29.459,2068
29.4692,2031
29.4794,2039
29.4896,2139
29.4998,2092
29.5099,2089
29.5201,2127
29.5303,2014
29.5405,2036
29.5507,2035
29.5609,1956
29.5711,2050
29.5813,2030
29.5915,2226
29.6017,2168
29.6119,2124
29.6221,2049
29.6323,2085
29.6425,2151
29.6526,2164
29.6628,2129
29.673,2089
29.6832,2040
29.6934,2130
29.7036,2117
29.7138,2151
29.724,2131
29.7342,2123
29.7444,2202
29.7546,2271
29.7648,2137
29.775,2112
29.7852,2215
29.7953,2138
29.8055,2096
29.8157,2074
29.8259,2105
29.8361,2095
29.8463,2187
29.8565,2105
29.8667,2154
29.8769,2235
29.8871,2206
29.8973,2182
29.9075,2261
29.9177,2220
29.9279,2188
29.938,2163
29.9482,2148
29.9584,2179
29.9686,2196
29.9788,2244
29.989,2222
29.9992,2302
30.0094,2257
30.0196,2126
30.0298,2244
30.04,2239
30.0502,2131
30.0604,2153
30.0706,2233
30.0807,2195
30.0909,2337
30.1011,2211
30.1113,2194
30.1215,2242
30.1317,2161
30.1419,2298
30.1521,2289
30.1623,2217
30.1725,2152
30.1827,2158
30.1929,2242
30.2031,2189
30.2133,2210
30.2234,2235
30.2336,2304
30.2438,2245
30.254,2173
30.2642,2284
30.2744,2288
30.2846,2243
30.2948,2123
30.305,2234
30.3152,2234
30.3254,2296
30.3356,2299
30.3458,2301
30.356,2196
30.3661,2325
30.3763,2325
30.3865,2306
30.3967,2327
30.4069,2300
30.4171,2217
30.4273,2313
30.4375,2284
30.4477,2343
30.4579,2336
30.4681,2301
30.4783,2380
30.4885,2280
30.4987,2206
30.5088,2322
30.519,2344
30.5292,2309
30.5394,2333
30.5496,2327
30.5598,2319
30.57,2316
30.5802,2287
30.5904,2286
30.6006,2352
30.6108,2245
30.621,2370
30.6312,2363
30.6414,2289
30.6515,2400
30.6617,2414
30.6719,2359
30.6821,2404
30.6923,2271
30.7025,2360
30.7127,2366
30.7229,2333
30.7331,2257
30.7433,2311
30.7535,2267
30.7637,2337
30.7739,2318
30.7841,2391
30.7942,2357
30.8044,2385
30.8146,2392
30.8248,2279
30.835,2303
30.8452,2346
30.8554,2422
30.8656,2377
30.8758,2329
30.886,2349
30.8962,2308
30.9064,2448
30.9166,2272
30.9268,2438
30.9369,2376
30.9471,2495
30.9573,2356
30.9675,2333
30.9777,2453
30.9879,2370
30.9981,2371
31.0083,2329
31.0185,2347
31.0287,2406
31.0389,2352
31.0491,2337
31.0593,2326
31.0695,2403
31.0796,2534
31.0898,2311
31.1,2425
31.1102,2419
31.1204,2393
31.1306,2383
31.1408,2457
31.151,2451
31.1612,2404
31.1714,2291
31.1816,2427
31.1918,2419
31.202,2328
31.2122,2343
31.2223,2479
31.2325,2323
31.2427,2375
31.2529,2397
31.2631,2435
31.2733,2447
31.2835,2424
31.2937,2354
31.3039,2317
31.3141,2339
31.3243,2357
31.3345,2405
31.3447,2372
31.3549,2308
31.365,2405
31.3752,2364
31.3854,2407
31.3956,2370
31.4058,2444
31.416,2443
31.4262,2392
31.4364,2431
31.4466,2493
31.4568,2415
31.467,2402
31.4772,2400
31.4874,2388
31.4976,2386
31.5077,2422
31.5179,2419
31.5281,2424
31.5383,2372
31.5485,2391
31.5587,2421
31.5689,2402
31.5791,2389
31.5893,2413
31.5995,2444
31.6097,2425
31.6199,2383
31.6301,2419
31.6403,2384
31.6504,2397
31.6606,2408
31.6708,2371
31.681,2447
31.6912,2450
31.7014,2451
31.7116,2398
31.7218,2268
31.732,2351
31.7422,2349
31.7524,2385
31.7626,2452
31.7728,2451
31.783,2426
31.7931,2411
31.8033,2375
31.8135,2316
31.8237,2330
31.8339,2455
31.8441,2361
31.8543,2340
31.8645,2495
31.8747,2344
31.8849,2415
31.8951,2451
31.9053,2362
31.9155,2352
31.9257,2367
31.9359,2352
31.946,2385
31.9562,2343
31.9664,2406
31.9766,2404
31.9868,2437
31.997,2405
32.0072,2320
32.0174,2459
32.0276,2432
32.0378,2415
32.048,2368
32.0582,2421
32.0684,2402
32.0786,2480
32.0887,2342
32.0989,2349
32.1091,2348
32.1193,2390
32.1295,2373
32.1397,2414
32.1499,2441
32.1601,2382
32.1703,2412
32.1805,2372
32.1907,2372
32.2009,2386
32.2111,2311
32.2213,2338
32.2314,2445
32.2416,2334
32.2518,2422
32.262,2335
32.2722,2295
32.2824,2387
32.2926,2359
32.3028,2336
32.313,2320
32.3232,2343
32.3334,2362
32.3436,2428
32.3538,2404
32.364,2337
32.3741,2324
32.3843,2386
32.3945,2398
32.4047,2325
32.4149,2333
32.4251,2396
32.4353,2310
32.4455,2349
32.4557,2423
32.4659,2318
32.4761,2301
32.4863,2350
32.4965,2339
32.5067,2339
32.5168,2414
32.527,2310
32.5372,2317
32.5474,2398
32.5576,2314
32.5678,2305
32.578,2281
32.5882,2339
32.5984,2303
32.6086,2394
32.6188,2386
32.629,2309
32.6392,2317
32.6494,2277
32.6595,2418
32.6697,2267
32.6799,2315
32.6901,2215
32.7003,2305
32.7105,2348
32.7207,2297
32.7309,2256
32.7411,2318
32.7513,2368
32.7615,2255
32.7717,2386
32.7819,2251
32.7921,2285
32.8022,2377
32.8124,2296
32.8226,2324
32.8328,2393
32.843,2307
32.8532,2242
32.8634,2297
32.8736,2260
32.8838,2382
32.894,2239
32.9042,2352
32.9144,2248
32.9246,2287
32.9348,2375
32.9449,2332
32.9551,2282
32.9653,2365
32.9755,2360
32.9857,2217
32.9959,2218
33.0061,2284
33.0163,2259
33.0265,2321
33.0367,2272
33.0469,2251
33.0571,2284
33.0673,2292
33.0775,2285
33.0876,2303
33.0978,2243
33.108,2268
33.1182,2205
33.1284,2235
33.1386,2208
33.1488,2303
33.159,2211
33.1692,2255
33.1794,2265
33.1896,2199
33.1998,2262
33.21,2192
33.2202,2268
33.2303,2241
33.2405,2221
33.2507,2283
33.2609,2213
33.2711,2321
33.2813,2233
33.2915,2096
33.3017,2243
33.3119,2234
33.3221,2239
33.3323,2203
33.3425,2300
33.3527,2256
33.3629,2278
33.373,2197
33.3832,2166
33.3934,2183
33.4036,2218
33.4138,2148
33.424,2149
33.4342,2261
33.4444,2208
33.4546,2235
33.4648,2199
33.475,2156
33.4852,2196
33.4954,2210
33.5056,2226
33.5157,2254
33.5259,2261
33.5361,2183
33.5463,2271
33.5565,2243
33.5667,2192
33.5769,2204
33.5871,2213
33.5973,2196
33.6075,2105
33.6177,2248
33.6279,2263
33.6381,2210
33.6483,2125
33.6584,2151
33.6686,2145
33.6788,2077
33.689,2158
33.6992,2122
33.7094,2116
33.7196,2117
33.7298,2130
33.74,2064
33.7502,2120
33.7604,2180
33.7706,2073
33.7808,2106
33.791,2125
33.8011,2175
33.8113,2191
33.8215,2167
33.8317,2137
33.8419,2098
33.8521,2149
33.8623,2172
33.8725,2185
33.8827,2110
33.8929,2163
33.9031,2265
33.9133,2097
33.9235,2097
33.9337,2135
33.9438,2104
33.954,2094
33.9642,2126
33.9744,2150
33.9846,2065
33.9948,2143
34.005,2100
34.0152,2119
34.0254,2092
34.0356,2092
34.0458,2149
34.056,2092
34.0662,2112
34.0764,2047
34.0865,2078
34.0967,2161
34.1069,2159
34.1171,2129
34.1273,2134
34.1375,2010
34.1477,2132
34.1579,2084
34.1681,2094
34.1783,2119
34.1885,1993
34.1987,2065
34.2089,2076
34.2191,2066
34.2292,2096
34.2394,2108
34.2496,2153
34.2598,2082
34.27,2063
34.2802,2046
34.2904,2067
34.3006,2001
34.3108,2013
34.321,2038
34.3312,2058
34.3414,2096
34.3516,2080
34.3618,2073
34.3719,2086
34.3821,1998
34.3923,2123
34.4025,2089
34.4127,2002
34.4229,2105
34.4331,2001
34.4433,2001
34.4535,2139
34.4637,2032
34.4739,2096
34.4841,1983
34.4943,2045
34.5045,1971
34.5146,2049
34.5248,2106
34.535,2128
34.5452,2043
34.5554,2067
34.5656,1930
34.5758,1963
34.586,2119
34.5962,1979
34.6064,1988
34.6166,2091
34.6268,2030
34.637,2095
34.6472,1968
34.6573,2029
34.6675,2025
34.6777,1934
34.6879,1956
34.6981,2024
34.7083,1992
34.7185,2006
34.7287,2002
34.7389,2038
34.7491,2035
34.7593,1962
34.7695,1936
34.7797,2003
34.7899,2051
34.8,1953
34.8102,2003
34.8204,1979
34.8306,2001
34.8408,1935
34.851,1927
34.8612,1989
34.8714,1965
34.8816,2015
34.8918,2006
34.902,1998
34.9122,1981
34.9224,1933
34.9326,1980
34.9427,1916
34.9529,1909
34.9631,1953
34.9733,1928
34.9835,1938
34.9937,2009
35.0039,1946
35.0141,1988
35.0243,1979
35.0345,1914
35.0447,1943
35.0549,1871
35.0651,1925
35.0753,1959
35.0854,2039
35.0956,1934
35.1058,2008
35.116,1945
35.1262,1930
35.1364,1914
35.1466,1899
35.1568,1968
35.167,1958
35.1772,1912
35.1874,1997
35.1976,1917
35.2078,1999
35.218,1947
35.2281,1989
35.2383,1944
35.2485,1892
35.2587,1880
35.2689,1949
35.2791,1965
35.2893,1944
35.2995,1919
35.3097,1987
35.3199,1879
35.3301,1949
35.3403,1931
35.3505,1840
35.3607,1939
35.3708,1974
35.381,1903
35.3912,1893
35.4014,1891
35.4116,1990
35.4218,1918
35.432,1906
35.4422,1836
35.4524,1973
35.4626,1948
35.4728,1973
35.483,1849
35.4932,1831
35.5034,1917
35.5135,1970
35.5237,1911
35.5339,1938
35.5441,1921
35.5543,1859
35.5645,1875
35.5747,1855
35.5849,1989
35.5951,1939
35.6053,1952
35.6155,1925
35.6257,1930
35.6359,1925
35.6461,1950
35.6562,1943
35.6664,1832
35.6766,1886
35.6868,1976
35.697,1881
35.7072,1876
35.7174,1907
35.7276,1830
35.7378,1873
35.748,1835
35.7582,1857
35.7684,1932
35.7786,1840
35.7888,1852
35.7989,1813
35.8091,1878
35.8193,1899
35.8295,1910
35.8397,1821
35.8499,1877
35.8601,1896
35.8703,1878
35.8805,1888
35.8907,1936
35.9009,1865
35.9111,1914
35.9213,1823
35.9315,1917
35.9416,1847
35.9518,1852
35.962,1877
35.9722,1867
35.9824,1850
35.9926,1837
36.0028,1858
36.013,1894
36.0232,1890
36.0334,1866
36.0436,1842
36.0538,1848
36.064,1849
36.0742,1870
36.0843,1861
36.0945,1924
36.1047,1882
36.1149,1878
36.1251,1856
36.1353,1871
36.1455,1784
36.1557,1844
36.1659,1816
36.1761,1800
36.1863,1859
36.1965,1821
36.2067,1807
36.2169,1873
36.227,1862
36.2372,1815
36.2474,1907
36.2576,1842
36.2678,1846
36.278,1821
36.2882,1816
36.2984,1839
36.3086,1713
36.3188,1780
36.329,1909
36.3392,1857
36.3494,1877
36.3596,1911
36.3697,1725
36.3799,1763
36.3901,1888
36.4003,1825
36.4105,1816
36.4207,1855
36.4309,1940
36.4411,1736
36.4513,1848
36.4615,1898
36.4717,1906
36.4819,1835
36.4921,1891
36.5023,1804
36.5124,1800
36.5226,1840
36.5328,1800
36.543,1759
36.5532,1808
36.5634,1834
36.5736,1812
36.5838,1817
36.594,1891
36.6042,1739
36.6144,1835
36.6246,1776
36.6348,1814
36.645,1782
36.6551,1819
36.6653,1820
36.6755,1818
36.6857,1768
36.6959,1817
36.7061,1818
36.7163,1804
36.7265,1840
36.7367,1818
36.7469,1770
36.7571,1760
36.7673,1824
36.7775,1769
36.7877,1837
36.7978,1816
36.808,1911
36.8182,1856
36.8284,1831
36.8386,1773
36.8488,1806
36.859,1783
36.8692,1893
36.8794,1777
36.8896,1746
36.8998,1802
36.91,1772
36.9202,1832
36.9304,1771
36.9405,1894
36.9507,1876
36.9609,1829
36.9711,1786
36.9813,1846
36.9915,1775
37.0017,1778
37.0119,1762
37.0221,1740
37.0323,1813
37.0425,1839
37.0527,1750
37.0629,1821
37.0731,1824
37.0832,1814
37.0934,1776
37.1036,1773
37.1138,1772
37.124,1828
37.1342,1759
37.1444,1828
37.1546,1761
37.1648,1809
37.175,1780
37.1852,1851
37.1954,1793
37.2056,1717
37.2158,1739
37.2259,1763
37.2361,1822
37.2463,1803
37.2565,1741
37.2667,1739
37.2769,1789
37.2871,1800
37.2973,1802
37.3075,1792
37.3177,1754
37.3279,1835
37.3381,1780
37.3483,1804
37.3585,1874
37.3686,1752
37.3788,1746
37.389,1792
37.3992,1794
37.4094,1819
37.4196,1788
37.4298,1787
37.44,1763
37.4502,1824
37.4604,1802
37.4706,1865
37.4808,1800
37.491,1746
37.5012,1807
37.5113,1863
37.5215,1755
37.5317,1860
37.5419,1767
37.5521,1785
37.5623,1807
37.5725,1738
37.5827,1764
37.5929,1793
37.6031,1745
37.6133,1739
37.6235,1802
37.6337,1784
37.6439,1757
37.654,1750
37.6642,1834
37.6744,1744
37.6846,1726
37.6948,1868
37.705,1769
37.7152,1807
37.7254,1788
37.7356,1780
37.7458,1783
37.756,1731
37.7662,1794
37.7764,1800
37.7866,1810
37.7967,1784
37.8069,1831
37.8171,1749
37.8273,1695
37.8375,1860
37.8477,1730
37.8579,1827
37.8681,1845
37.8783,1729
37.8885,1794
37.8987,1801
37.9089,1822
37.9191,1750
37.9293,1785
37.9395,1768
37.9496,1887
37.9598,1776
37.97,1767
37.9802,1747
37.9904,1729
38.0006,1704
38.0108,1751
38.021,1760
38.0312,1711
38.0414,1770
38.0516,1813
38.0618,1836
38.072,1737
38.0822,1800
38.0923,1830
38.1025,1766
38.1127,1760
38.1229,1733
38.1331,1700
38.1433,1849
38.1535,1867
38.1637,1725
38.1739,1759
38.1841,1768
38.1943,1857
38.2045,1792
38.2147,1826
38.2249,1764
38.235,1750
38.2452,1797
38.2554,1757
38.2656,1799
38.2758,1789
38.286,1835
38.2962,1805
38.3064,1725
38.3166,1775
38.3268,1765
38.337,1844
38.3472,1818
38.3574,1922
38.3676,1737
38.3777,1749
38.3879,1847
38.3981,1803
38.4083,1807
38.4185,1771
38.4287,1769
38.4389,1850
38.4491,1812
38.4593,1735
38.4695,1815
38.4797,1833
38.4899,1808
38.5001,1744
38.5103,1789
38.5204,1748
38.5306,1762
38.5408,1869
38.551,1802
38.5612,1766
38.5714,1744
38.5816,1757
38.5918,1719
38.602,1714
38.6122,1828
38.6224,1730
38.6326,1769
38.6428,1785
38.653,1809
38.6631,1837
38.6733,1770
38.6835,1804
38.6937,1820
38.7039,1788
38.7141,1821
38.7243,1727
38.7345,1733
38.7447,1782
38.7549,1807
38.7651,1849
38.7753,1794
38.7855,1832
38.7957,1835
38.8058,1779
38.816,1772
38.8262,1887
38.8364,1777
38.8466,1832
38.8568,1782
38.867,1843
38.8772,1765
38.8874,1710
38.8976,1854
38.9078,1719
38.918,1825
38.9282,1749
38.9384,1786
38.9485,1829
38.9587,1934
38.9689,1758
38.9791,1773
38.9893,1789
38.9995,1805
39.0097,1862
39.0199,1864
39.0301,1841
39.0403,1832
39.0505,1883
39.0607,1815
39.0709,1852
39.0811,1837
39.0912,1796
39.1014,1828
39.1116,1869
39.1218,1846
39.132,1823
39.1422,1833
39.1524,1757
39.1626,1810
39.1728,1812
39.183,1825
39.1932,1764
39.2034,1843
39.2136,1816
39.2238,1834
39.2339,1872
39.2441,1803
39.2543,1815
39.2645,1812
39.2747,1799
39.2849,1736
39.2951,1858
39.3053,1764
39.3155,1801
39.3257,1749
39.3359,1880
39.3461,1771
39.3563,1793
39.3665,1863
39.3766,1777
39.3868,1807
39.397,1773
39.4072,1785
39.4174,1827
39.4276,1853
39.4378,1848
39.448,1770
39.4582,1794
39.4684,1833
39.4786,1798
39.4888,1809
39.499,1848
39.5092,1862
39.5193,1861
39.5295,1893
39.5397,1829
39.5499,1759
39.5601,1808
39.5703,1872
39.5805,1866
39.5907,1865
39.6009,1873
39.6111,1833
39.6213,1905
39.6315,1818
39.6417,1860
39.6519,1843
39.662,1820
39.6722,1794
39.6824,1801
39.6926,1855
39.7028,1789
39.713,1863
39.7232,1827
39.7334,1911
39.7436,1874
39.7538,1831
39.764,1886
39.7742,1945
39.7844,1893
39.7946,1946
39.8047,1943
39.8149,1911
39.8251,1927
39.8353,1924
39.8455,2003
39.8557,1922
39.8659,1864
39.8761,1863
39.8863,1934
39.8965,1896
39.9067,1946
39.9169,1918
39.9271,1853
39.9373,1925
39.9474,1848
39.9576,1922
39.9678,1861
39.978,1918
39.9882,1809
39.9984,1889
40.0086,1812
40.0188,1764
40.029,1905
40.0392,1899
40.0494,1789
40.0596,1876
40.0698,1802
40.08,1917
40.0901,1822
40.1003,1727
40.1105,1859
40.1207,1807
40.1309,1802
40.1411,1912
40.1513,1785
40.1615,1886
40.1717,1873
40.1819,1806
40.1921,1806
40.2023,1929
40.2125,1761
40.2227,1813
40.2328,1880
40.243,1765
40.2532,1840
40.2634,1756
40.2736,1830
40.2838,1865
40.294,1732
40.3042,1804
40.3144,1849
40.3246,1867
40.3348,1770
40.345,1747
40.3552,1856
40.3654,1863
40.3755,1882
40.3857,1744
40.3959,1837
40.4061,1846
40.4163,1814
40.4265,1816
40.4367,1850
40.4469,1801
40.4571,1815
40.4673,1893
40.4775,1731
40.4877,1745
40.4979,1835
40.5081,1865
40.5182,1843
40.5284,1789
40.5386,1824
40.5488,1782
40.559,1738
40.5692,1788
40.5794,1926
40.5896,1873
40.5998,1831
40.61,1874
40.6202,1798
40.6304,1848
40.6406,1845
40.6508,1781
40.6609,1817
40.6711,1784
40.6813,1868
40.6915,1803
40.7017,1864
40.7119,1808
40.7221,1799
40.7323,1829
40.7425,1757
40.7527,1727
40.7629,1839
40.7731,1856
40.7833,1810
40.7935,1877
40.8036,1849
40.8138,1856
40.824,1784
40.8342,1816
40.8444,1864
40.8546,1838
40.8648,1741
40.875,1832
40.8852,1808
40.8954,1781
40.9056,1914
40.9158,1802
40.926,1810
40.9362,1807
40.9463,1824
40.9565,1813
40.9667,1812
40.9769,1898
40.9871,1785
40.9973,1883
41.0075,1830
41.0177,1738
41.0279,1866
41.0381,1795
41.0483,1777
41.0585,1792
41.0687,1798
41.0789,1832
41.089,1778
41.0992,1805
41.1094,1864
41.1196,1797
41.1298,1813
41.14,1824
41.1502,1844
41.1604,1778
41.1706,1834
41.1808,1814
41.191,1766
41.2012,1794
41.2114,1811
41.2216,1762
41.2317,1763
41.2419,1866
41.2521,1854
41.2623,1868
41.2725,1835
41.2827,1788
41.2929,1742
41.3031,1735
41.3133,1755
41.3235,1717
41.3337,1828
41.3439,1738
41.3541,1810
41.3643,1783
41.3744,1822
41.3846,1818
41.3948,1847
41.405,1865
41.4152,1861
41.4254,1765
41.4356,1856
41.4458,1804
41.456,1753
41.4662,1826
41.4764,1842
41.4866,1771
41.4968,1860
41.507,1736
41.5171,1728
41.5273,1706
41.5375,1794
41.5477,1808
41.5579,1745
41.5681,1820
41.5783,1875
41.5885,1770
41.5987,1853
41.6089,1768
41.6191,1734
41.6293,1827
41.6395,1766
41.6497,1792
41.6598,1760
41.67,1732
41.6802,1814
41.6904,1844
41.7006,1729
41.7108,1792
41.721,1819
41.7312,1746
41.7414,1796
41.7516,1833
41.7618,1836
41.772,1744
41.7822,1787
41.7924,1814
41.8025,1799
41.8127,1730
41.8229,1748
41.8331,1726
41.8433,1762
41.8535,1748
41.8637,1743
41.8739,1798
41.8841,1789
41.8943,1735
41.9045,1706
41.9147,1763
41.9249,1762
41.9351,1824
41.9452,1712
41.9554,1701
41.9656,1710
41.9758,1776
41.986,1773
41.9962,1831
42.0064,1729
42.0166,1734
42.0268,1710
42.037,1678
42.0472,1731
42.0574,1797
42.0676,1706
42.0778,1809
42.0879,1725
42.0981,1801
42.1083,1791
42.1185,1744
42.1287,1822
42.1389,1835
42.1491,1729
42.1593,1758
42.1695,1713
42.1797,1769
42.1899,1826
42.2001,1777
42.2103,1693
42.2205,1681
42.2306,1793
42.2408,1736
42.251,1724
42.2612,1710
42.2714,1708
42.2816,1700
42.2918,1705
42.302,1662
42.3122,1745
42.3224,1763
42.3326,1773
42.3428,1707
42.353,1745
42.3632,1656
42.3733,1743
42.3835,1746
42.3937,1661
42.4039,1691
42.4141,1619
42.4243,1771
42.4345,1788
42.4447,1599
42.4549,1614
42.4651,1722
42.4753,1750
42.4855,1682
42.4957,1712
42.5059,1745
42.516,1649
42.5262,1682
42.5364,1690
42.5466,1780
42.5568,1689
42.567,1722
42.5772,1692
42.5874,1691
42.5976,1718
42.6078,1692
42.618,1745
42.6282,1697
42.6384,1604
42.6486,1680
42.6587,1678
42.6689,1701
42.6791,1720
42.6893,1631
42.6995,1723
42.7097,1649
42.7199,1687
42.7301,1649
42.7403,1648
42.7505,1657
42.7607,1733
42.7709,1673
42.7811,1672
42.7913,1672
42.8014,1647
42.8116,1670
42.8218,1675
42.832,1634
42.8422,1654
42.8524,1704
42.8626,1673
42.8728,1630
42.883,1704
42.8932,1634
42.9034,1655
42.9136,1637
42.9238,1711
42.934,1699
42.9441,1664
42.9543,1676
42.9645,1670
42.9747,1546
42.9849,1636
42.9951,1620
43.0053,1614
43.0155,1631
43.0257,1579
43.0359,1621
43.0461,1635
43.0563,1673
43.0665,1661
43.0767,1716
43.0868,1673
43.097,1656
43.1072,1634
43.1174,1595
43.1276,1571
43.1378,1636
43.148,1687
43.1582,1708
43.1684,1646
43.1786,1635
43.1888,1676
43.199,1546
43.2092,1550
43.2194,1594
43.2295,1618
43.2397,1599
43.2499,1575
43.2601,1617
43.2703,1637
43.2805,1622
43.2907,1600
43.3009,1632
43.3111,1592
43.3213,1597
43.3315,1615
43.3417,1571
43.3519,1539
43.3621,1634
43.3722,1607
43.3824,1538
43.3926,1633
43.4028,1565
43.413,1588
43.4232,1587
43.4334,1553
43.4436,1606
43.4538,1715
43.464,1631
43.4742,1557
43.4844,1575
43.4946,1609
43.5048,1549
43.5149,1522
43.5251,1568
43.5353,1609
43.5455,1653
43.5557,1562
43.5659,1560
43.5761,1559
43.5863,1579
43.5965,1597
43.6067,1573
43.6169,1587
43.6271,1595
43.6373,1560
43.6475,1614
43.6576,1579
43.6678,1581
43.678,1551
43.6882,1545
43.6984,1580
43.7086,1602
43.7188,1623
43.729,1546
43.7392,1554
43.7494,1560
43.7596,1515
43.7698,1528
43.78,1550
43.7902,1459
43.8003,1580
43.8105,1553
43.8207,1535
43.8309,1638
43.8411,1524
43.8513,1533
43.8615,1520
43.8717,1560
43.8819,1523
43.8921,1562
43.9023,1517
43.9125,1492
43.9227,1504
43.9329,1550
43.9431,1552
43.9532,1502
43.9634,1535
43.9736,1527
43.9838,1514
43.994,1548
44.0042,1527
44.0144,1564
44.0246,1589
44.0348,1536
44.045,1503
44.0552,1518
44.0654,1515
44.0756,1529
44.0858,1478
44.0959,1446
44.1061,1495
44.1163,1509
44.1265,1512
44.1367,1533
44.1469,1494
44.1571,1511
44.1673,1469
44.1775,1481
44.1877,1481
44.1979,1498
44.2081,1530
44.2183,1500
44.2285,1416
44.2386,1554
44.2488,1520
44.259,1451
44.2692,1525
44.2794,1487
44.2896,1480
44.2998,1494
44.31,1439
44.3202,1464
44.3304,1464
44.3406,1399
44.3508,1510
44.361,1476
44.3712,1447
44.3813,1486
44.3915,1378
44.4017,1540
44.4119,1493
44.4221,1428
44.4323,1519
44.4425,1449
44.4527,1414
44.4629,1531
44.4731,1503
44.4833,1472
44.4935,1413
44.5037,1449
44.5139,1464
44.524,1417
44.5342,1477
44.5444,1434
44.5546,1442
44.5648,1439
44.575,1470
44.5852,1479
44.5954,1462
44.6056,1393
44.6158,1465
44.626,1361
44.6362,1441
44.6464,1465
44.6566,1447
44.6667,1384
44.6769,1414
44.6871,1519
44.6973,1419
44.7075,1440
44.7177,1425
44.7279,1457
44.7381,1419
44.7483,1415
44.7585,1418
44.7687,1387
44.7789,1418
44.7891,1422
44.7993,1484
44.8094,1415
44.8196,1422
44.8298,1423
44.84,1413
44.8502,1412
44.8604,1460
44.8706,1417
44.8808,1396
44.891,1384
44.9012,1368
44.9114,1369
44.9216,1421
44.9318,1459
44.942,1356
44.9521,1471
44.9623,1397
44.9725,1455
44.9827,1400
44.9929,1479
45.0031,1408
45.0133,1391
45.0235,1420
45.0337,1404
45.0439,1435
45.0541,1474
45.0643,1393
45.0745,1342
45.0847,1444
45.0948,1367
45.105,1382
45.1152,1419
45.1254,1427
45.1356,1355
45.1458,1365
45.156,1358
45.1662,1320
45.1764,1335
45.1866,1388
45.1968,1409
45.207,1385
45.2172,1392
45.2274,1297
45.2375,1366
45.2477,1384
45.2579,1362
45.2681,1376
45.2783,1346
45.2885,1333
45.2987,1423
45.3089,1437
45.3191,1410
45.3293,1302
45.3395,1277
45.3497,1359
45.3599,1340
45.3701,1367
45.3802,1351
45.3904,1291
45.4006,1328
45.4108,1334
45.421,1334
45.4312,1329
45.4414,1411
45.4516,1331
45.4618,1301
45.472,1397
45.4822,1338
45.4924,1342
45.5026,1343
45.5128,1352
45.5229,1354
45.5331,1345
45.5433,1317
45.5535,1327
45.5637,1352
45.5739,1342
45.5841,1316
45.5943,1364
45.6045,1317
45.6147,1294
45.6249,1315
45.6351,1282
45.6453,1369
45.6555,1304
45.6656,1368
45.6758,1307
45.686,1267
45.6962,1312
45.7064,1321
45.7166,1335
45.7268,1344
45.737,1291
45.7472,1292
45.7574,1286
45.7676,1355
45.7778,1284
45.788,1353
45.7982,1317
45.8083,1296
45.8185,1303
45.8287,1282
45.8389,1302
45.8491,1261
45.8593,1316
45.8695,1331
45.8797,1279
45.8899,1360
45.9001,1313
45.9103,1294
45.9205,1305
45.9307,1285
45.9409,1295
45.951,1329
45.9612,1325
45.9714,1229
45.9816,1325
45.9918,1275
46.002,1330
46.0122,1255
46.0224,1327
46.0326,1246
46.0428,1280
46.053,1311
46.0632,1223
46.0734,1360
46.0836,1254
46.0937,1229
46.1039,1261
46.1141,1264
46.1243,1258
46.1345,1244
46.1447,1250
46.1549,1285
46.1651,1286
46.1753,1265
46.1855,1232
46.1957,1252
46.2059,1249
46.2161,1290
46.2263,1302
46.2364,1224
46.2466,1275
46.2568,1270
46.267,1274
46.2772,1267
46.2874,1213
46.2976,1263
46.3078,1255
46.318,1191
46.3282,1240
46.3384,1263
46.3486,1241
46.3588,1306
46.369,1259
46.3791,1298
46.3893,1282
46.3995,1268
46.4097,1282
46.4199,1224
46.4301,1240
46.4403,1255
46.4505,1229
46.4607,1253
46.4709,1234
46.4811,1195
46.4913,1218
46.5015,1277
46.5117,1305
46.5218,1295
46.532,1145
46.5422,1255
46.5524,1227
46.5626,1229
46.5728,1177
46.583,1242
46.5932,1201
46.6034,1233
46.6136,1228
46.6238,1157
46.634,1240
46.6442,1221
46.6544,1319
46.6645,1225
46.6747,1222
46.6849,1188
46.6951,1246
46.7053,1226
46.7155,1190
46.7257,1170
46.7359,1248
46.7461,1188
46.7563,1182
46.7665,1206
46.7767,1204
46.7869,1218
46.7971,1190
46.8072,1165
46.8174,1169
46.8276,1204
46.8378,1248
46.848,1241
46.8582,1201
46.8684,1190
46.8786,1211
46.8888,1199
46.899,1241
46.9092,1185
46.9194,1205
46.9296,1210
46.9398,1224
46.9499,1238
46.9601,1275
46.9703,1206
46.9805,1227
46.9907,1116
47.0009,1121
47.0111,1187
47.0213,1150
47.0315,1230
47.0417,1185
47.0519,1189
47.0621,1193
47.0723,1204
47.0825,1185
47.0926,1202
47.1028,1161
47.113,1216
47.1232,1188
47.1334,1233
47.1436,1209
47.1538,1185
47.164,1142
47.1742,1171
47.1844,1200
47.1946,1147
47.2048,1190
47.215,1199
47.2252,1176
47.2353,1172
47.2455,1151
47.2557,1208
47.2659,1143
47.2761,1179
47.2863,1190
47.2965,1121
47.3067,1101
47.3169,1195
47.3271,1164
47.3373,1189
47.3475,1198
47.3577,1156
47.3679,1223
47.378,1150
47.3882,1113
47.3984,1128
47.4086,1150
47.4188,1123
47.429,1131
47.4392,1143
47.4494,1211
47.4596,1165
47.4698,1191
47.48,1140
47.4902,1187
47.5004,1144
47.5106,1157
47.5207,1147
47.5309,1217
47.5411,1103
47.5513,1139
47.5615,1141
47.5717,1111
47.5819,1138
47.5921,1135
47.6023,1144
47.6125,1089
47.6227,1106
47.6329,1145
47.6431,1161
47.6533,1132
47.6634,1114
47.6736,1117
47.6838,1169
47.694,1109
47.7042,1147
47.7144,1157
47.7246,1114
47.7348,1092
47.745,1104
47.7552,1094
47.7654,1114
47.7756,1116
47.7858,1096
47.796,1123
47.8061,1131
47.8163,1093
47.8265,1114
47.8367,1172
47.8469,1135
47.8571,1110
47.8673,1143
47.8775,1148
47.8877,1108
47.8979,1116
47.9081,1123
47.9183,1147
47.9285,1146
47.9387,1129
47.9488,1118
47.959,1068
47.9692,1116
47.9794,1083
47.9896,1146
47.9998,1129
48.01,1162
48.0202,1091
48.0304,1150
48.0406,1064
48.0508,1102
48.061,1104
48.0712,1131
48.0814,1105
48.0915,1116
48.1017,1144
48.1119,1079
48.1221,1093
48.1323,1104
48.1425,1084
48.1527,1101
48.1629,1098
48.1731,1107
48.1833,1058
48.1935,1101
48.2037,1080
48.2139,1104
48.2241,1110
48.2342,1131
48.2444,1118
48.2546,1148
48.2648,1082
48.275,1115
48.2852,1114
48.2954,1167
48.3056,1125
48.3158,1119
48.326,1058
48.3362,1074
48.3464,1071
48.3566,1103
48.3668,1092
48.3769,1045
48.3871,1101
48.3973,1099
48.4075,1089
48.4177,1090
48.4279,1103
48.4381,1099
48.4483,1064
48.4585,1080
48.4687,1156
48.4789,1118
48.4891,1146
48.4993,1136
48.5095,1061
48.5196,1028
48.5298,1122
48.54,1093
48.5502,1031
48.5604,1050
48.5706,1147
48.5808,1040
48.591,1102
48.6012,1076
48.6114,1106
48.6216,1121
48.6318,1092
48.642,1081
48.6522,1100
48.6623,1050
48.6725,1081
48.6827,1138
48.6929,1072
48.7031,1072
48.7133,1019
48.7235,1101
48.7337,1081
48.7439,1078
48.7541,1110
48.7643,1097
48.7745,1062
48.7847,1074
48.7949,1033
48.805,1096
48.8152,1063
48.8254,1059
48.8356,1105
48.8458,1071
48.856,1021
48.8662,1058
48.8764,1019
48.8866,1068
48.8968,1068
48.907,1082
48.9172,1148
48.9274,1076
48.9376,1069
48.9477,1093
48.9579,1087
48.9681,1112
48.9783,1089
48.9885,1075
48.9987,1094
49.0089,1061
49.0191,1090
49.0293,1044
49.0395,1082
49.0497,1003
49.0599,1050
49.0701,1097
49.0803,1052
49.0904,1021
49.1006,1033
49.1108,1061
49.121,1094
49.1312,1046
49.1414,1033
49.1516,1103
49.1618,1030
49.172,1039
49.1822,1111
49.1924,1042
49.2026,1084
49.2128,1046
49.223,1050
49.2331,1059
49.2433,1096
49.2535,994
49.2637,1039
49.2739,1054
49.2841,1065
49.2943,1064
49.3045,1091
49.3147,998
49.3249,1046
49.3351,1091
49.3453,1048
49.3555,1061
49.3657,1107
49.3758,1081
49.386,1072
49.3962,1072
49.4064,1076
49.4166,1033
49.4268,1063
49.437,1043
49.4472,1063
49.4574,1011
49.4676,1028
49.4778,1025
49.488,1030
49.4982,1040
49.5084,1097
49.5185,1060
49.5287,1054
49.5389,1048
49.5491,995
49.5593,1053
49.5695,1064
49.5797,1034
49.5899,1051
49.6001,1020
49.6103,1027
49.6205,1006
49.6307,1036
49.6409,966
49.6511,1029
49.6612,1110
49.6714,1080
49.6816,1003
49.6918,987
49.702,1050
49.7122,1029
49.7224,1108
49.7326,990
49.7428,1036
49.753,1073
49.7632,988
49.7734,1002
49.7836,1017
49.7938,1021
49.804,1068
49.8141,1081
49.8243,974
49.8345,1136
49.8447,998
49.8549,1018
49.8651,1037
49.8753,1038
49.8855,1050
49.8957,1077
49.9059,1069
49.9161,1056
49.9263,989
49.9365,1069
49.9467,1074
49.9568,1039
49.967,1014
49.9772,1001
49.9874,1015
49.9976,1077
50.0078,1005
50.018,983
50.0282,1056
50.0384,1089
50.0486,1023
50.0588,1017
50.069,1056
50.0792,1025
50.0894,955
50.0995,1038
50.1097,1029
50.1199,1044
50.1301,1018
50.1403,1007
50.1505,1015
50.1607,984
50.1709,1039
50.1811,982
50.1913,973
50.2015,1005
50.2117,1011
50.2219,1024
50.2321,1058
50.2422,1045
50.2524,984
50.2626,975
50.2728,1058
50.283,1058
50.2932,1009
50.3034,1014
50.3136,1008
50.3238,1034
50.334,1058
50.3442,1016
50.3544,1005
50.3646,1032
50.3748,1026
50.3849,1004
50.3951,994
50.4053,1032
50.4155,1072
50.4257,1055
50.4359,977
50.4461,1005
50.4563,991
50.4665,1007
50.4767,1066
50.4869,1018
50.4971,1034
50.5073,984
50.5175,977
50.5276,972
50.5378,1029
50.548,1010
50.5582,1023
50.5684,1009
50.5786,980
50.5888,1059
50.599,1048
50.6092,968
50.6194,987
50.6296,1054
50.6398,986
50.65,994
50.6602,1072
50.6703,1024
50.6805,1036
50.6907,1035
50.7009,1005
50.7111,1009
50.7213,996
50.7315,1023
50.7417,1042
50.7519,1007
50.7621,1001
50.7723,980
50.7825,1026
50.7927,994
50.8029,1066
50.813,978
50.8232,976
50.8334,983
50.8436,1010
50.8538,1023
50.864,979
50.8742,1016
50.8844,970
50.8946,1011
50.9048,990
50.915,965
50.9252,965
50.9354,948
50.9456,962
50.9557,1018
50.9659,999
50.9761,981
50.9863,960
50.9965,994
51.0067,978
51.0169,1017
51.0271,1037
51.0373,983
51.0475,1031
51.0577,1016
51.0679,1015
51.0781,1023
51.0883,992
51.0984,971
51.1086,992
51.1188,1009
51.129,1004
51.1392,960
51.1494,979
51.1596,979
51.1698,969
51.18,990
51.1902,969
51.2004,985
51.2106,959
51.2208,943
51.231,1082
51.2411,960
51.2513,938
51.2615,967
51.2717,964
51.2819,1028
51.2921,1036
51.3023,1011
51.3125,995
51.3227,988
51.3329,986
51.3431,982
51.3533,1010
51.3635,964
51.3737,954
51.3838,926
51.394,983
51.4042,954
51.4144,965
51.4246,916
51.4348,1000
51.445,1000
51.4552,924
51.4654,992
51.4756,976
51.4858,1023
51.496,1011
51.5062,1026
51.5164,977
51.5265,930
51.5367,986
51.5469,981
51.5571,963
51.5673,1022
51.5775,981
51.5877,945
51.5979,928
51.6081,926
51.6183,1025
51.6285,981
51.6387,967
51.6489,1003
51.6591,960
51.6692,1008
51.6794,956
51.6896,998
51.6998,994
51.71,911
51.7202,1056
51.7304,954
51.7406,977
51.7508,984
51.761,983
51.7712,935
51.7814,988
51.7916,989
51.8018,934
51.8119,975
51.8221,994
51.8323,942
51.8425,993
51.8527,974
51.8629,981
51.8731,939
51.8833,954
51.8935,1032
51.9037,951
51.9139,998
51.9241,966
51.9343,960
51.9445,968
51.9546,992
51.9648,987
51.975,1006
51.9852,900
51.9954,942
52.0056,919
52.0158,884
52.026,959
52.0362,977
52.0464,960
52.0566,986
52.0668,987
52.077,927
52.0872,980
52.0973,972
52.1075,927
52.1177,1002
52.1279,960
52.1381,907
52.1483,988
52.1585,930
52.1687,951
52.1789,941
52.1891,1052
52.1993,938
52.2095,967
52.2197,941
52.2299,979
52.24,1026
52.2502,916
52.2604,986
52.2706,959
52.2808,1001
52.291,948
52.3012,968
52.3114,939
52.3216,982
52.3318,924
52.342,973
52.3522,936
52.3624,968
52.3726,945
52.3827,1035
52.3929,1012
52.4031,967
52.4133,947
52.4235,988
52.4337,923
52.4439,955
52.4541,926
52.4643,944
52.4745,906
52.4847,934
52.4949,963
52.5051,922
52.5153,993
52.5254,910
52.5356,909
52.5458,964
52.556,980
52.5662,955
52.5764,924
52.5866,928
52.5968,918
52.607,961
52.6172,922
52.6274,897
52.6376,902
52.6478,964
52.658,953
52.6681,973
52.6783,941
52.6885,990
52.6987,972
52.7089,946
52.7191,955
52.7293,980
52.7395,847
52.7497,1019
52.7599,936
52.7701,974
52.7803,969
52.7905,943
52.8007,950
52.8108,964
52.821,971
52.8312,982
52.8414,933
52.8516,941
52.8618,933
52.872,905
52.8822,955
52.8924,945
52.9026,943
52.9128,942
52.923,1000
52.9332,895
52.9434,946
52.9535,935
52.9637,946
52.9739,889
52.9841,903
52.9943,1004
53.0045,897
53.0147,990
53.0249,950
53.0351,996
53.0453,942
53.0555,989
53.0657,910
53.0759,938
53.0861,949
53.0962,996
53.1064,948
53.1166,932
53.1268,922
53.137,924
53.1472,928
53.1574,991
53.1676,903
53.1778,932
53.188,917
53.1982,952
53.2084,906
53.2186,898
53.2288,955
53.2389,1009
53.2491,929
53.2593,940
53.2695,972
53.2797,959
53.2899,987
53.3001,903
53.3103,948
53.3205,908
53.3307,940
53.3409,902
53.3511,946
53.3613,933
53.3715,945
53.3816,921
53.3918,933
53.402,953
53.4122,933
53.4224,875
53.4326,927
53.4428,968
53.453,930
53.4632,943
53.4734,914
53.4836,980
53.4938,942
53.504,942
53.5142,934
53.5243,944
53.5345,894
53.5447,940
53.5549,955
53.5651,944
53.5753,940
53.5855,927
53.5957,902
53.6059,937
53.6161,969
53.6263,950
53.6365,968
53.6467,889
53.6569,956
53.667,978
53.6772,923
53.6874,953
53.6976,894
53.7078,920
53.718,958
53.7282,931
53.7384,878
53.7486,984
53.7588,902
53.769,900
53.7792,879
53.7894,903
53.7996,880
53.8097,864
53.8199,933
53.8301,954
53.8403,931
53.8505,931
53.8607,858
53.8709,912
53.8811,914
53.8913,909
53.9015,910
53.9117,890
53.9219,881
53.9321,924
53.9423,919
53.9524,927
53.9626,925
53.9728,938
53.983,882
53.9932,882
54.0034,950
54.0136,926
54.0238,875
54.034,922
54.0442,901
54.0544,922
54.0646,988
54.0748,918
54.085,901
54.0951,858
54.1053,924
54.1155,985
54.1257,931
54.1359,887
54.1461,900
54.1563,877
54.1665,888
54.1767,878
54.1869,952
54.1971,876
54.2073,908
54.2175,942
54.2277,910
54.2378,947
54.248,892
54.2582,917
54.2684,957
54.2786,885
54.2888,902
54.299,951
54.3092,908
54.3194,933
54.3296,917
54.3398,898
54.35,883
54.3602,886
54.3704,892
54.3805,866
54.3907,943
54.4009,875
54.4111,932
54.4213,952
54.4315,869
54.4417,929
54.4519,977
54.4621,929
54.4723,914
54.4825,956
54.4927,948
54.5029,950
54.5131,897
54.5232,923
54.5334,896
54.5436,895
54.5538,895
54.564,866
54.5742,864
54.5844,908
54.5946,886
54.6048,908
54.615,908
54.6252,920
54.6354,912
54.6456,954
54.6558,907
54.6659,865
54.6761,950
54.6863,862
54.6965,840
54.7067,927
54.7169,884
54.7271,892
54.7373,872
54.7475,889
54.7577,914
54.7679,923
54.7781,868
54.7883,911
54.7985,875
54.8086,877
54.8188,899
54.829,912
54.8392,899
54.8494,901
54.8596,927
54.8698,854
54.88,880
54.8902,909
54.9004,891
54.9106,805
54.9208,921
54.931,916
54.9412,888
54.9513,845
54.9615,949
54.9717,858
54.9819,919
54.9921,928
55.0023,889
55.0125,957
55.0227,837
55.0329,907
55.0431,925
55.0533,872
55.0635,930
55.0737,862
55.0839,952
55.094,894
55.1042,893
55.1144,886
55.1246,882
55.1348,833
55.145,877
55.1552,909
55.1654,907
55.1756,853
55.1858,873
55.196,911
55.2062,898
55.2164,891
55.2266,865
55.2367,904
55.2469,898
55.2571,823
55.2673,844
55.2775,850
55.2877,945
55.2979,829
55.3081,866
55.3183,838
55.3285,866
55.3387,876
55.3489,922
55.3591,905
55.3693,908
55.3794,909
55.3896,951
55.3998,942
55.41,892
55.4202,929
55.4304,938
55.4406,826
55.4508,886
55.461,932
55.4712,915
55.4814,922
55.4916,919
55.5018,878
55.512,914
55.5221,881
55.5323,887
55.5425,899
55.5527,920
55.5629,869
55.5731,871
55.5833,917
55.5935,855
55.6037,877
55.6139,898
55.6241,901
55.6343,866
55.6445,889
55.6547,883
55.6648,833
55.675,852
55.6852,902
55.6954,866
55.7056,868
55.7158,906
55.726,806
55.7362,843
55.7464,895
55.7566,858
55.7668,870
55.777,864
55.7872,836
55.7974,879
55.8076,888
55.8177,908
55.8279,870
55.8381,927
55.8483,866
55.8585,913
55.8687,905
55.8789,859
55.8891,865
55.8993,891
55.9095,834
55.9197,865
55.9299,867
55.9401,849
55.9503,856
55.9604,872
55.9706,851
55.9808,836
55.991,823
56.0012,874
56.0114,897
56.0216,849
56.0318,900
56.042,918
56.0522,903
56.0624,826
56.0726,882
56.0828,872
56.093,866
56.1031,854
56.1133,756
56.1235,836
56.1337,834
56.1439,900
56.1541,846
56.1643,853
56.1745,860
56.1847,851
56.1949,840
56.2051,831
56.2153,840
56.2255,890
56.2357,867
56.2458,880
56.256,876
56.2662,878
56.2764,816
56.2866,843
56.2968,876
56.307,916
56.3172,875
56.3274,862
56.3376,913
56.3478,880
56.358,795
56.3682,844
56.3784,855
56.3885,875
56.3987,836
56.4089,818
56.4191,868
56.4293,846
56.4395,880
56.4497,857
56.4599,821
56.4701,865
56.4803,883
56.4905,839
56.5007,900
56.5109,833
56.5211,853
56.5312,884
56.5414,822
56.5516,824
56.5618,863
56.572,859
56.5822,870
56.5924,831
56.6026,825
56.6128,843
56.623,839
56.6332,862
56.6434,856
56.6536,840
56.6638,908
56.6739,832
56.6841,863
56.6943,856
56.7045,866
56.7147,895
56.7249,906
56.7351,818
56.7453,896
56.7555,799
56.7657,828
56.7759,831
56.7861,851
56.7963,844
56.8065,845
56.8166,780
56.8268,823
56.837,836
56.8472,849
56.8574,855
56.8676,890
56.8778,887
56.888,872
56.8982,827
56.9084,865
56.9186,868
56.9288,831
56.939,879
56.9492,874
56.9593,817
56.9695,815
56.9797,832
56.9899,801
57.0001,836
57.0103,825
57.0205,867
57.0307,880
57.0409,798
57.0511,865
57.0613,796
57.0715,843
57.0817,834
57.0919,909
57.102,868
57.1122,845
57.1224,892
57.1326,874
57.1428,836
57.153,795
57.1632,861
57.1734,835
57.1836,849
57.1938,852
57.204,798
57.2142,828
57.2244,822
57.2346,867
57.2447,838
57.2549,854
57.2651,863
57.2753,843
57.2855,808
57.2957,822
57.3059,836
57.3161,800
57.3263,883
57.3365,854
57.3467,836
57.3569,846
57.3671,846
57.3773,818
57.3874,816
57.3976,858
57.4078,837
57.418,864
57.4282,861
57.4384,835
57.4486,830
57.4588,866
57.469,808
57.4792,831
57.4894,802
57.4996,863
57.5098,886
57.52,827
57.5301,829
57.5403,816
57.5505,807
57.5607,867
57.5709,806
57.5811,802
57.5913,874
57.6015,841
57.6117,792
57.6219,835
57.6321,773
57.6423,807
57.6525,789
57.6627,837
57.6728,834
57.683,806
57.6932,832
57.7034,843
57.7136,820
57.7238,832
57.734,844
57.7442,855
57.7544,828
57.7646,829
57.7748,819
57.785,868
57.7952,868
57.8054,825
57.8155,861
57.8257,797
57.8359,774
57.8461,834
57.8563,821
57.8665,798
57.8767,849
57.8869,834
57.8971,834
57.9073,779
57.9175,848
57.9277,798
57.9379,834
57.9481,784
57.9582,798
57.9684,789
57.9786,865
57.9888,801
57.999,821
58.0092,881
58.0194,790
58.0296,815
58.0398,826
58.05,855
58.0602,843
58.0704,831
58.0806,743
58.0908,793
58.1009,867
58.1111,824
58.1213,816
58.1315,890
58.1417,824
58.1519,823
58.1621,816
58.1723,845
58.1825,795
58.1927,816
58.2029,791
58.2131,847
58.2233,800
58.2335,843
58.2436,871
58.2538,769
58.264,854
58.2742,794
58.2844,848
58.2946,852
58.3048,791
58.315,830
58.3252,831
58.3354,820
58.3456,850
58.3558,811
58.366,853
58.3762,823
58.3863,778
58.3965,801
58.4067,788
58.4169,827
58.4271,843
58.4373,769
58.4475,850
58.4577,786
58.4679,761
58.4781,825
58.4883,784
58.4985,833
58.5087,795
58.5189,810
58.529,840
58.5392,786
58.5494,856
58.5596,807
58.5698,819
58.58,811
58.5902,793
58.6004,806
58.6106,783
58.6208,785
58.631,814
58.6412,807
58.6514,840
58.6616,816
58.6717,814
58.6819,778
58.6921,812
58.7023,785
58.7125,833
58.7227,848
58.7329,813
58.7431,807
58.7533,778
58.7635,824
58.7737,788
58.7839,776
58.7941,836
58.8043,796
58.8144,795
58.8246,805
58.8348,764
58.845,766
58.8552,780
58.8654,735
58.8756,830
58.8858,805
58.896,819
58.9062,812
58.9164,846
58.9266,723
58.9368,757
58.947,801
58.9571,841
58.9673,795
58.9775,732
58.9877,817
58.9979,847
59.0081,809
59.0183,795
59.0285,859
59.0387,772
59.0489,792
59.0591,805
59.0693,814
59.0795,806
59.0897,817
59.0998,789
59.11,793
59.1202,774
59.1304,811
59.1406,793
59.1508,850
59.161,808
59.1712,786
59.1814,822
59.1916,741
59.2018,796
59.212,805
59.2222,815
59.2324,806
59.2425,824
59.2527,833
59.2629,773
59.2731,744
59.2833,785
59.2935,757
59.3037,810
59.3139,826
59.3241,791
59.3343,769
59.3445,805
59.3547,761
59.3649,781
59.3751,774
59.3852,780
59.3954,798
59.4056,759
59.4158,784
59.426,846
59.4362,766
59.4464,762
59.4566,797
59.4668,788
59.477,824
59.4872,752
59.4974,798
59.5076,782
59.5178,798
59.5279,809
59.5381,783
59.5483,749
59.5585,813
59.5687,823
59.5789,731
59.5891,781
59.5993,774
59.6095,757
59.6197,763
59.6299,861
59.6401,774
59.6503,780
59.6605,814
59.6706,785
59.6808,768
59.691,799
59.7012,794
59.7114,795
59.7216,797
59.7318,772
59.742,797
59.7522,767
59.7624,726
59.7726,764
59.7828,742
59.793,812
59.8032,769
59.8133,809
59.8235,772
59.8337,752
59.8439,785
59.8541,811
59.8643,723
59.8745,806
59.8847,807
59.8949,765
59.9051,826
59.9153,757
59.9255,741
59.9357,825
59.9459,806
59.956,823
59.9662,803
59.9764,761
59.9866,816
59.9968,773
60.007,738
60.0172,802
60.0274,779
60.0376,778
60.0478,764
60.058,777
60.0682,786
60.0784,751
60.0886,784
60.0987,771
60.1089,743
60.1191,744
60.1293,787
60.1395,811
60.1497,777
60.1599,766
60.1701,797
60.1803,820
60.1905,783
60.2007,734
60.2109,781
60.2211,749
60.2313,779
60.2414,740
60.2516,797
60.2618,717
60.272,756
60.2822,759
60.2924,793
60.3026,743
60.3128,784
60.323,777
60.3332,732
60.3434,774
60.3536,774
60.3638,745
60.374,783
60.3841,818
60.3943,761
60.4045,757
60.4147,754
60.4249,747
60.4351,785
60.4453,785
60.4555,748
60.4657,776
60.4759,831
60.4861,769
60.4963,781
60.5065,722
60.5167,766
60.5268,737
60.537,793
60.5472,791
60.5574,756
60.5676,709
60.5778,748
60.588,788
60.5982,719
60.6084,753
60.6186,779
60.6288,736
60.639,817
60.6492,798
60.6594,736
60.6695,723
60.6797,747
60.6899,773
60.7001,822
60.7103,818
60.7205,781
60.7307,820
60.7409,757
60.7511,786
60.7613,743
60.7715,764
60.7817,728
60.7919,762
60.8021,817
60.8122,777
60.8224,780
60.8326,787
60.8428,751
60.853,776
60.8632,717
60.8734,754
60.8836,796
60.8938,788
60.904,792
60.9142,726
60.9244,777
60.9346,692
60.9448,808
60.9549,775
60.9651,764
60.9753,758
60.9855,776
60.9957,789
61.0059,810
61.0161,754
61.0263,782
61.0365,790
61.0467,771
61.0569,771
61.0671,820
61.0773,704
61.0875,756
61.0976,749
61.1078,742
61.118,757
61.1282,757
61.1384,754
61.1486,796
61.1588,771
61.169,740
61.1792,781
61.1894,754
61.1996,738
61.2098,671
61.22,778
61.2302,785
61.2403,741
61.2505,798
61.2607,731
61.2709,722
61.2811,776
61.2913,781
61.3015,738
61.3117,705
61.3219,772
61.3321,760
61.3423,752
61.3525,781
61.3627,771
61.3729,755
61.383,717
61.3932,807
61.4034,785
61.4136,778
61.4238,773
61.434,768
61.4442,719
61.4544,720
61.4646,779
61.4748,728
61.485,727
61.4952,776
61.5054,755
61.5156,770
61.5257,742
61.5359,767
61.5461,789
61.5563,761
61.5665,777
61.5767,745
61.5869,722
61.5971,751
61.6073,706
61.6175,776
61.6277,766
61.6379,794
61.6481,781
61.6583,740
61.6684,716
61.6786,761
61.6888,767
61.699,752
61.7092,749
61.7194,757
61.7296,730
61.7398,762
61.75,759
61.7602,785
61.7704,796
61.7806,765
61.7908,711
61.801,749
61.8112,755
61.8213,748
61.8315,730
61.8417,784
61.8519,746
61.8621,791
61.8723,741
61.8825,746
61.8927,725
61.9029,717
61.9131,789
61.9233,784
61.9335,703
61.9437,731
61.9539,720
61.964,739
61.9742,802
61.9844,783
61.9946,745
62.0048,704
62.015,762
62.0252,698
62.0354,776
62.0456,777
62.0558,743
62.066,777
62.0762,743
62.0864,749
62.0966,752
62.1067,733
62.1169,694
62.1271,767
62.1373,760
62.1475,731
62.1577,762
62.1679,729
62.1781,722
62.1883,754
62.1985,765
62.2087,725
62.2189,742
62.2291,750
62.2393,742
62.2494,808
62.2596,740
62.2698,782
62.28,735
62.2902,735
62.3004,726
62.3106,733
62.3208,744
62.331,756
62.3412,709
62.3514,734
62.3616,690
62.3718,728
62.382,783
62.3921,753
62.4023,742
62.4125,779
62.4227,690
62.4329,719
62.4431,714
62.4533,683
62.4635,745
62.4737,757
62.4839,688
62.4941,737
62.5043,726
62.5145,670
62.5247,721
62.5348,695
62.545,761
62.5552,755
62.5654,708
62.5756,742
62.5858,757
62.596,728
62.6062,722
62.6164,747
62.6266,737
62.6368,803
62.647,719
62.6572,742
62.6674,737
62.6775,766
62.6877,747
62.6979,735
62.7081,753
62.7183,677
62.7285,735
62.7387,727
62.7489,741
62.7591,760
62.7693,708
62.7795,709
62.7897,759
62.7999,718
62.8101,742
62.8202,725
62.8304,743
62.8406,740
62.8508,734
62.861,710
62.8712,752
62.8814,743
62.8916,743
62.9018,734
62.912,725
62.9222,694
62.9324,757
62.9426,735
62.9528,804
62.9629,739
62.9731,735
62.9833,720
62.9935,758
63.0037,761
63.0139,735
63.0241,698
63.0343,705
63.0445,706
63.0547,718
63.0649,703
63.0751,713
63.0853,785
63.0955,736
63.1056,720
63.1158,703
63.126,725
63.1362,686
63.1464,703
63.1566,728
63.1668,744
63.177,701
63.1872,728
63.1974,706
63.2076,723
63.2178,805
63.228,729
63.2382,819
63.2483,689
63.2585,736
63.2687,719
63.2789,676
63.2891,715
63.2993,699
63.3095,738
63.3197,704
63.3299,781
63.3401,737
63.3503,760
63.3605,702
63.3707,743
63.3809,794
63.391,739
63.4012,683
63.4114,718
63.4216,778
63.4318,709
63.442,778
63.4522,708
63.4624,763
63.4726,714
63.4828,722
63.493,756
63.5032,736
63.5134,719
63.5236,753
63.5337,699
63.5439,698
63.5541,735
63.5643,698
63.5745,752
63.5847,748
63.5949,719
63.6051,716
63.6153,745
63.6255,738
63.6357,706
63.6459,728
63.6561,723
63.6663,738
63.6764,722
63.6866,731
63.6968,735
63.707,744
63.7172,736
63.7274,698
63.7376,674
63.7478,697
63.758,687
63.7682,705
63.7784,759
63.7886,717
63.7988,718
63.809,766
63.8191,685
63.8293,759
63.8395,735
63.8497,722
63.8599,748
63.8701,700
63.8803,733
63.8905,720
63.9007,702
63.9109,723
63.9211,695
63.9313,762
63.9415,767
63.9517,725
63.9618,731
63.972,763
63.9822,708
63.9924,795
64.0026,668
64.0128,730
64.023,730
64.0332,751
64.0434,695
64.0536,710
64.0638,744
64.074,706
64.0842,695
64.0944,756
64.1045,677
64.1147,739
64.1249,707
64.1351,767
64.1453,698
64.1555,723
64.1657,710
64.1759,704
64.1861,749
64.1963,710
64.2065,754
64.2167,708
64.2269,685
64.2371,717
64.2472,738
64.2574,696
64.2676,681
64.2778,703
64.288,720
64.2982,678
64.3084,727
64.3186,690
64.3288,735
64.339,677
64.3492,669
64.3594,731
64.3696,753
64.3798,713
64.3899,725
64.4001,688
64.4103,733
64.4205,738
64.4307,693
64.4409,729
64.4511,699
64.4613,671
64.4715,750
64.4817,715
64.4919,708
64.5021,711
64.5123,757
64.5225,749
64.5326,740
64.5428,728
64.553,712
64.5632,699
64.5734,780
64.5836,760
64.5938,728
64.604,722
64.6142,675
64.6244,700
64.6346,741
64.6448,702
64.655,723
64.6652,726
64.6753,683
64.6855,712
64.6957,760
64.7059,723
64.7161,687
64.7263,767
64.7365,726
64.7467,715
64.7569,733
64.7671,634
64.7773,710
64.7875,730
64.7977,711
64.8079,691
64.818,726
64.8282,675
64.8384,701
64.8486,700
64.8588,697
64.869,701
64.8792,728
64.8894,732
64.8996,694
64.9098,701
64.92,730
64.9302,710
64.9404,740
64.9506,647
64.9607,675
64.9709,690
64.9811,781
64.9913,717
65.0015,735
65.0117,716
65.0219,754
65.0321,734
65.0423,692
65.0525,718
65.0627,715
65.0729,673
65.0831,711
65.0933,729
65.1034,703
65.1136,685
65.1238,719
65.134,692
65.1442,725
65.1544,694
65.1646,686
65.1748,701
65.185,724
65.1952,732
65.2054,754
65.2156,694
65.2258,707
65.236,690
65.2461,720
65.2563,674
65.2665,639
65.2767,725
65.2869,685
65.2971,703
65.3073,707
65.3175,669
65.3277,680
65.3379,746
65.3481,697
65.3583,680
65.3685,692
65.3787,703
65.3888,712
65.399,717
65.4092,713
65.4194,670
65.4296,674
65.4398,678
65.45,687
65.4602,648
65.4704,706
65.4806,716
65.4908,692
65.501,721
65.5112,714
65.5214,773
65.5315,688
65.5417,708
65.5519,702
65.5621,697
65.5723,742
65.5825,713
65.5927,705
65.6029,660
65.6131,731
65.6233,692
65.6335,708
65.6437,710
65.6539,718
65.6641,726
65.6742,689
65.6844,711
65.6946,717
65.7048,670
65.715,710
65.7252,683
65.7354,644
65.7456,697
65.7558,661
65.766,655
65.7762,718
65.7864,738
65.7966,719
65.8068,716
65.8169,667
65.8271,724
65.8373,717
65.8475,742
65.8577,715
65.8679,672
65.8781,757
65.8883,663
65.8985,715
65.9087,711
65.9189,686
65.9291,709
65.9393,666
65.9495,682
65.9596,739
65.9698,693
65.98,725
65.9902,726
66.0004,687
66.0106,676
66.0208,710
66.031,754
66.0412,703
66.0514,701
66.0616,697
66.0718,667
66.082,704
66.0922,749
66.1023,707
66.1125,706
66.1227,695
66.1329,697
66.1431,691
66.1533,680
66.1635,689
66.1737,688
66.1839,728
66.1941,656
66.2043,716
66.2145,701
66.2247,711
66.2349,721
66.245,697
66.2552,691
66.2654,704
66.2756,680
66.2858,714
66.296,698
66.3062,705
66.3164,704
66.3266,666
66.3368,748
66.347,691
66.3572,692
66.3674,746
66.3776,744
66.3877,687
66.3979,688
66.4081,683
66.4183,667
66.4285,675
66.4387,675
66.4489,754
66.4591,713
66.4693,703
66.4795,648
66.4897,743
66.4999,702
66.5101,689
66.5203,717
66.5304,741
66.5406,648
66.5508,691
66.561,715
66.5712,718
66.5814,724
66.5916,682
66.6018,659
66.612,700
66.6222,739
66.6324,651
66.6426,689
66.6528,740
66.663,735
66.6731,723
66.6833,697
66.6935,671
66.7037,687
66.7139,648
66.7241,680
66.7343,704
66.7445,667
66.7547,749
66.7649,758
66.7751,707
66.7853,699
66.7955,699
66.8057,675
66.8158,727
66.826,716
66.8362,706
66.8464,689
66.8566,684
66.8668,720
66.877,723
66.8872,697
66.8974,688
66.9076,713
66.9178,700
66.928,637
66.9382,781
66.9484,735
66.9585,697
66.9687,696
66.9789,717
66.9891,740
66.9993,684
67.0095,715
67.0197,733
67.0299,685
67.0401,681
67.0503,682
67.0605,717
67.0707,693
67.0809,696
67.0911,711
67.1012,697
67.1114,706
67.1216,711
67.1318,627
67.142,686
67.1522,675
67.1624,694
67.1726,694
67.1828,745
67.193,701
67.2032,650
67.2134,701
67.2236,726
67.2338,742
67.2439,712
67.2541,706
67.2643,669
67.2745,693
67.2847,711
67.2949,709
67.3051,715
67.3153,672
67.3255,682
67.3357,747
67.3459,700
67.3561,684
67.3663,644
67.3765,658
67.3866,669
67.3968,726
67.407,671
67.4172,712
67.4274,675
67.4376,683
67.4478,687
67.458,632
67.4682,683
67.4784,724
67.4886,702
67.4988,692
67.509,766
67.5192,657
67.5293,683
67.5395,729
67.5497,688
67.5599,684
67.5701,674
67.5803,716
67.5905,739
67.6007,710
67.6109,630
67.6211,698
67.6313,727
67.6415,668
67.6517,671
67.6619,689
67.6721,640
67.6822,656
67.6924,668
67.7026,712
67.7128,714
67.723,688
67.7332,698
67.7434,707
67.7536,713
67.7638,710
67.774,677
67.7842,724
67.7944,735
67.8046,684
67.8148,708
67.8249,707
67.8351,676
67.8453,714
67.8555,701
67.8657,693
67.8759,702
67.8861,722
67.8963,721
67.9065,700
67.9167,721
67.9269,706
67.9371,655
67.9473,735
67.9575,709
67.9676,721
67.9778,695
67.988,673
67.9982,610
68.0084,755
68.0186,693
68.0288,677
68.039,676
68.0492,719
68.0594,651
68.0696,670
68.0798,727
68.09,724
68.1002,689
68.1103,713
68.1205,701
68.1307,674
68.1409,682
68.1511,702
68.1613,667
68.1715,703
68.1817,657
68.1919,654
68.2021,656
68.2123,689
68.2225,671
68.2327,649
68.2429,688
68.253,698
68.2632,741
68.2734,699
68.2836,667
68.2938,733
68.304,661
68.3142,692
68.3244,692
68.3346,722
68.3448,692
68.355,629
68.3652,652
68.3754,701
68.3856,684
68.3957,717
68.4059,677
68.4161,685
68.4263,708
68.4365,731
68.4467,726
68.4569,698
68.4671,670
68.4773,702
68.4875,701
68.4977,697
68.5079,689
68.5181,685
68.5283,696
68.5384,670
68.5486,699
68.5588,679
68.569,693
68.5792,677
68.5894,680
68.5996,679
68.6098,705
68.62,705
68.6302,691
68.6404,702
68.6506,697
68.6608,705
68.671,708
68.6811,669
68.6913,660
68.7015,693
68.7117,688
68.7219,717
68.7321,667
68.7423,706
68.7525,652
68.7627,660
68.7729,676
68.7831,662
68.7933,688
68.8035,693
68.8137,745
68.8238,702
68.834,707
68.8442,701
68.8544,709
68.8646,717
68.8748,676
68.885,653
68.8952,672
68.9054,682
68.9156,653
68.9258,657
68.936,685
68.9462,658
68.9564,692
68.9665,664
68.9767,651
68.9869,648
68.9971,641
69.0073,694
69.0175,707
69.0277,670
69.0379,702
69.0481,700
69.0583,679
69.0685,724
69.0787,696
69.0889,706
69.0991,720
69.1092,662
69.1194,695
69.1296,705
69.1398,701
69.15,706
69.1602,667
69.1704,657
69.1806,658
69.1908,698
69.201,683
69.2112,686
69.2214,663
69.2316,708
69.2418,688
69.2519,699
69.2621,692
69.2723,691
69.2825,633
69.2927,638
69.3029,696
69.3131,673
69.3233,648
69.3335,675
69.3437,653
69.3539,643
69.3641,699
69.3743,712
69.3845,675
69.3946,726
69.4048,665
69.415,673
69.4252,679
69.4354,697
69.4456,651
69.4558,677
69.466,685
69.4762,639
69.4864,641
69.4966,654
69.5068,695
69.517,660
69.5272,680
69.5373,693
69.5475,713
69.5577,658
69.5679,645
69.5781,729
69.5883,652
69.5985,708
69.6087,653
69.6189,704
69.6291,723
69.6393,708
69.6495,684
69.6597,689
69.6699,693
69.68,680
69.6902,645
69.7004,680
69.7106,708
69.7208,702
69.731,659
69.7412,649
69.7514,644
69.7616,662
69.7718,657
69.782,662
69.7922,694
69.8024,666
69.8126,656
69.8227,671
69.8329,705
69.8431,663
69.8533,701
69.8635,686
69.8737,666
69.8839,694
69.8941,716
69.9043,710
69.9145,654
69.9247,704
69.9349,710
69.9451,693
69.9553,729
69.9654,710
69.9756,690
69.9858,687
69.996,682
70.0062,679
70.0164,671
70.0266,630
70.0368,707
70.047,673
70.0572,688
70.0674,666
70.0776,664
70.0878,656
70.098,683
70.1081,692
70.1183,694
70.1285,701
70.1387,693
70.1489,657
70.1591,713
70.1693,676
70.1795,660
70.1897,688
70.1999,732
70.2101,679
70.2203,702
70.2305,611
70.2407,666
70.2508,695
70.261,691
70.2712,660
70.2814,674
70.2916,696
70.3018,702
70.312,683
70.3222,651
70.3324,680
70.3426,677
70.3528,684
70.363,677
70.3732,648
70.3834,667
70.3935,662
70.4037,675
70.4139,635
70.4241,692
70.4343,668
70.4445,648
70.4547,709
70.4649,627
70.4751,711
70.4853,696
70.4955,636
70.5057,667
70.5159,639
70.5261,680
70.5362,688
70.5464,649
70.5566,720
70.5668,682
70.577,631
70.5872,675
70.5974,720
70.6076,681
70.6178,644
70.628,674
70.6382,698
70.6484,614
70.6586,730
70.6688,696
70.6789,729
70.6891,660
70.6993,648
70.7095,672
70.7197,667
70.7299,699
70.7401,670
70.7503,679
70.7605,687
70.7707,675
70.7809,713
70.7911,688
70.8013,657
70.8115,682
70.8216,670
70.8318,677
70.842,697
70.8522,636
70.8624,696
70.8726,694
70.8828,735
70.893,658
70.9032,733
70.9134,733
70.9236,707
70.9338,667
70.944,702
70.9542,714
70.9643,631
70.9745,658
70.9847,697
70.9949,705
71.0051,649
71.0153,659
71.0255,679
71.0357,691
71.0459,707
71.0561,678
71.0663,674
71.0765,676
71.0867,645
71.0969,657
71.107,701
71.1172,691
71.1274,671
71.1376,687
71.1478,672
71.158,644
71.1682,666
71.1784,640
71.1886,675
71.1988,622
71.209,636
71.2192,700
71.2294,721
71.2396,637
71.2497,648
71.2599,689
71.2701,671
71.2803,642
71.2905,711
71.3007,648
71.3109,626
71.3211,658
71.3313,627
71.3415,693
71.3517,648
71.3619,679
71.3721,710
71.3823,698
71.3924,647
71.4026,677
71.4128,716
71.423,711
71.4332,648
71.4434,699
71.4536,668
71.4638,689
71.474,638
71.4842,707
71.4944,667
71.5046,631
71.5148,683
71.525,636
71.5351,677
71.5453,699
71.5555,677
71.5657,667
71.5759,622
71.5861,674
71.5963,685
71.6065,673
71.6167,657
71.6269,671
71.6371,620
71.6473,706
71.6575,698
71.6677,713
71.6778,682
71.688,684
71.6982,609
71.7084,644
71.7186,712
71.7288,653
71.739,674
71.7492,679
71.7594,687
71.7696,699
71.7798,668
71.79,662
71.8002,623
71.8104,720
71.8205,624
71.8307,716
71.8409,669
71.8511,631
71.8613,655
71.8715,660
71.8817,687
71.8919,618
71.9021,653
71.9123,632
71.9225,665
71.9327,645
71.9429,715
71.9531,660
71.9632,610
71.9734,617
71.9836,708
71.9938,639
72.004,643
72.0142,658
72.0244,684
72.0346,679
72.0448,629
72.055,619
72.0652,627
72.0754,632
72.0856,685
72.0958,684
72.1059,654
72.1161,699
72.1263,672
72.1365,644
72.1467,696
72.1569,729
72.1671,665
72.1773,640
72.1875,676
72.1977,710
72.2079,664
72.2181,670
72.2283,680
72.2385,655
72.2486,668
72.2588,645
72.269,634
72.2792,624
72.2894,672
72.2996,648
72.3098,650
72.32,705
72.3302,634
72.3404,652
72.3506,699
72.3608,671
72.371,698
72.3812,702
72.3913,650
72.4015,656
72.4117,685
72.4219,676
72.4321,679
72.4423,635
72.4525,716
72.4627,679
72.4729,667
72.4831,660
72.4933,698
72.5035,677
72.5137,660
72.5239,660
72.534,640
72.5442,697
72.5544,637
72.5646,640
72.5748,695
72.585,678
72.5952,647
72.6054,678
72.6156,659
72.6258,647
72.636,664
72.6462,687
72.6564,691
72.6666,667
72.6767,640
72.6869,646
72.6971,687
72.7073,693
72.7175,703
72.7277,642
72.7379,657
72.7481,705
72.7583,652
72.7685,652
72.7787,656
72.7889,664
72.7991,661
72.8093,637
72.8194,662
72.8296,670
72.8398,732
72.85,667
72.8602,730
72.8704,618
72.8806,655
72.8908,661
72.901,666
72.9112,661
72.9214,681
72.9316,647
72.9418,611
72.952,669
72.9621,653
72.9723,663
72.9825,674
72.9927,668
73.0029,665
73.0131,656
73.0233,698
73.0335,679
73.0437,656
73.0539,693
73.0641,649
73.0743,710
73.0845,729
73.0947,680
73.1048,705
73.115,674
73.1252,686
73.1354,658
73.1456,703
73.1558,720
73.166,678
73.1762,650
73.1864,614
73.1966,651
73.2068,620
73.217,693
73.2272,603
73.2374,654
73.2475,671
73.2577,628
73.2679,622
73.2781,693
73.2883,667
73.2985,685
73.3087,686
73.3189,652
73.3291,668
73.3393,699
73.3495,671
73.3597,685
73.3699,743
73.3801,642
73.3902,693
73.4004,685
73.4106,668
73.4208,686
73.431,646
73.4412,676
73.4514,698
73.4616,695
73.4718,688
73.482,668
73.4922,715
73.5024,703
73.5126,651
73.5228,616
73.5329,651
73.5431,691
73.5533,619
73.5635,664
73.5737,733
73.5839,676
73.5941,681
73.6043,677
73.6145,669
73.6247,732
73.6349,669
73.6451,704
73.6553,656
73.6655,649
73.6757,678
73.6858,653
73.696,708
73.7062,661
73.7164,691
73.7266,628
73.7368,676
73.747,681
73.7572,722
73.7674,667
73.7776,692
73.7878,659
73.798,663
73.8082,670
73.8184,688
73.8285,676
73.8387,707
73.8489,661
73.8591,614
73.8693,631
73.8795,633
73.8897,656
73.8999,659
73.9101,682
73.9203,669
73.9305,615
73.9407,642
73.9509,696
73.9611,648
73.9712,628
73.9814,717
73.9916,610
74.0018,649
74.012,681
74.0222,660
74.0324,692
74.0426,671
74.0528,685
74.063,660
74.0732,707
74.0834,637
74.0936,619
74.1038,634
74.1139,643
74.1241,676
74.1343,692
74.1445,687
74.1547,623
74.1649,698
74.1751,634
74.1853,659
74.1955,652
74.2057,655
74.2159,663
74.2261,661
74.2363,595
74.2465,693
74.2566,655
74.2668,684
74.277,666
74.2872,631
74.2974,633
74.3076,630
74.3178,677
74.328,644
74.3382,679
74.3484,652
74.3586,610
74.3688,624
74.379,588
74.3892,650
74.3993,612
74.4095,624
74.4197,631
74.4299,622
74.4401,667
74.4503,650
74.4605,638
74.4707,669
74.4809,650
74.4911,695
74.5013,655
74.5115,718
74.5217,650
74.5319,643
74.542,672
74.5522,672
74.5624,653
74.5726,656
74.5828,647
74.593,669
74.6032,650
74.6134,696
74.6236,649
74.6338,655
74.644,651
74.6542,617
74.6644,601
74.6746,687
74.6847,681
74.6949,700
74.7051,653
74.7153,629
74.7255,642
74.7357,649
74.7459,713
74.7561,629
74.7663,643
74.7765,666
74.7867,674
74.7969,655
74.8071,627
74.8173,652
74.8274,661
74.8376,681
74.8478,668
74.858,661
74.8682,631
74.8784,618
74.8886,662
74.8988,681
74.909,654
74.9192,656
74.9294,671
74.9396,683
74.9498,634
74.96,674
74.9701,654
74.9803,651
74.9905,664
75.0007,661
75.0109,618
75.0211,637
75.0313,652
75.0415,679
75.0517,636
75.0619,655
75.0721,645
75.0823,676
75.0925,618
75.1027,650
75.1128,643
75.123,668
75.1332,666
75.1434,638
75.1536,602
75.1638,613
75.174,653
75.1842,611
75.1944,703
75.2046,681
75.2148,692
75.225,693
75.2352,657
75.2454,635
75.2555,640
75.2657,682
75.2759,696
75.2861,660
75.2963,635
75.3065,667
75.3167,641
75.3269,611
75.3371,653
75.3473,660
75.3575,664
75.3677,641
75.3779,677
75.3881,616
75.3982,649
75.4084,619
75.4186,630
75.4288,631
75.439,612
75.4492,636
75.4594,623
75.4696,638
75.4798,626
75.49,682
75.5002,656
75.5104,602
75.5206,623
75.5308,689
75.5409,631
75.5511,641
75.5613,658
75.5715,679
75.5817,664
75.5919,659
75.6021,611
75.6123,643
75.6225,653
75.6327,632
75.6429,653
75.6531,657
75.6633,623
75.6735,669
75.6836,673
75.6938,615
75.704,648
75.7142,616
75.7244,622
75.7346,602
75.7448,648
75.755,626
75.7652,605
75.7754,650
75.7856,605
75.7958,605
75.806,641
75.8162,608
75.8263,602
75.8365,718
75.8467,603
75.8569,636
75.8671,640
75.8773,681
75.8875,695
75.8977,621
75.9079,642
75.9181,687
75.9283,600
75.9385,660
75.9487,616
75.9589,634
75.969,677
75.9792,641
75.9894,646
75.9996,650
76.0098,669
76.02,615
76.0302,635
76.0404,647
76.0506,628
76.0608,599
76.071,671
76.0812,688
76.0914,628
76.1016,622
76.1117,609
76.1219,665
76.1321,629
76.1423,637
76.1525,643
76.1627,656
76.1729,649
76.1831,653
76.1933,625
76.2035,634
76.2137,629
76.2239,631
76.2341,686
76.2443,633
76.2544,695
76.2646,646
76.2748,680
76.285,596
76.2952,663
76.3054,680
76.3156,684
76.3258,664
76.336,649
76.3462,664
76.3564,645
76.3666,671
76.3768,670
76.387,679
76.3971,683
76.4073,615
76.4175,622
76.4277,677
76.4379,612
76.4481,669
76.4583,639
76.4685,651
76.4787,630
76.4889,618
76.4991,661
76.5093,592
76.5195,656
76.5297,667
76.5398,627
76.55,644
76.5602,663
76.5704,658
76.5806,662
76.5908,645
76.601,635
76.6112,679
76.6214,602
76.6316,674
76.6418,662
76.652,632
76.6622,627
76.6724,637
76.6825,670
76.6927,647
76.7029,619
76.7131,686
76.7233,662
76.7335,639
76.7437,623
76.7539,633
76.7641,650
76.7743,646
76.7845,656
76.7947,624
76.8049,657
76.8151,710
76.8252,609
76.8354,649
76.8456,672
76.8558,662
76.866,662
76.8762,646
76.8864,661
76.8966,653
76.9068,643
76.917,677
76.9272,627
76.9374,636
76.9476,678
76.9578,644
76.9679,643
76.9781,588
76.9883,577
76.9985,609
77.0087,668
77.0189,659
77.0291,608
77.0393,671
77.0495,632
77.0597,628
77.0699,655
77.0801,633
77.0903,621
77.1005,577
77.1106,663
77.1208,655
77.131,646
77.1412,665
77.1514,645
77.1616,644
77.1718,693
77.182,613
77.1922,651
77.2024,633
77.2126,693
77.2228,639
77.233,619
77.2432,673
77.2533,650
77.2635,630
77.2737,661
77.2839,643
77.2941,631
77.3043,621
77.3145,650
77.3247,698
77.3349,634
77.3451,652
77.3553,618
77.3655,677
77.3757,654
77.3859,680
77.396,664
77.4062,612
77.4164,700
77.4266,643
77.4368,663
77.447,659
77.4572,606
77.4674,704
77.4776,646
77.4878,677
77.498,648
77.5082,604
77.5184,643
77.5286,636
77.5387,641
77.5489,582
77.5591,593
77.5693,641
77.5795,670
77.5897,643
77.5999,657
77.6101,658
77.6203,597
77.6305,627
77.6407,622
77.6509,651
77.6611,616
77.6713,636
77.6814,644
77.6916,693
77.7018,638
77.712,651
77.7222,636
77.7324,626
77.7426,660
77.7528,677
77.763,607
77.7732,624
77.7834,598
77.7936,652
77.8038,655
77.814,696
77.8241,623
77.8343,584
77.8445,676
77.8547,688
77.8649,616
77.8751,633
77.8853,612
77.8955,671
77.9057,589
77.9159,615
77.9261,637
77.9363,643
77.9465,683
77.9567,657
77.9668,605
77.977,706
77.9872,637
77.9974,648
78.0076,658
78.0178,617
78.028,620
78.0382,642
78.0484,609
78.0586,631
78.0688,625
78.079,670
78.0892,677
78.0994,609
78.1095,676
78.1197,683
78.1299,660
78.1401,637
78.1503,657
78.1605,635
78.1707,648
78.1809,602
78.1911,625
78.2013,643
78.2115,602
78.2217,627
78.2319,633
78.2421,621
78.2522,664
78.2624,657
78.2726,666
78.2828,643
78.293,649
78.3032,611
78.3134,623
78.3236,637
78.3338,670
78.344,619
78.3542,666
78.3644,606
78.3746,652
78.3848,641
78.3949,608
78.4051,634
78.4153,639
78.4255,664
78.4357,642
78.4459,676
78.4561,660
78.4663,639
78.4765,632
78.4867,634
78.4969,608
78.5071,618
78.5173,604
78.5275,669
78.5376,640
78.5478,608
78.558,634
78.5682,656
78.5784,662
78.5886,616
78.5988,568
78.609,626
78.6192,644
78.6294,647
78.6396,646
78.6498,610
78.66,637
78.6702,626
78.6803,648
78.6905,669
78.7007,618
78.7109,640
78.7211,600
78.7313,617
78.7415,578
78.7517,620
78.7619,681
78.7721,619
78.7823,619
78.7925,675
78.8027,599
78.8129,663
78.823,647
78.8332,633
78.8434,669
78.8536,577
78.8638,665
78.874,592
78.8842,687
78.8944,649
78.9046,618
78.9148,588
78.925,625
78.9352,666
78.9454,639
78.9556,652
78.9657,664
78.9759,626
78.9861,623
78.9963,605
79.0065,645
79.0167,622
79.0269,635
79.0371,646
79.0473,632
79.0575,634
79.0677,643
79.0779,593
79.0881,659
79.0983,627
79.1084,669
79.1186,675
79.1288,667
79.139,620
79.1492,633
79.1594,615
79.1696,621
79.1798,595
79.19,658
79.2002,632
79.2104,651
79.2206,676
79.2308,610
79.241,658
79.2511,666
79.2613,631
79.2715,651
79.2817,685
79.2919,649
79.3021,605
79.3123,700
79.3225,665
79.3327,631
79.3429,672
79.3531,691
79.3633,632
79.3735,638
79.3837,623
79.3938,652
79.404,648
79.4142,664
79.4244,676
79.4346,676
79.4448,640
79.455,658
79.4652,639
79.4754,636
79.4856,616
79.4958,625
79.506,635
79.5162,631
79.5264,664
79.5365,631
79.5467,669
79.5569,657
79.5671,617
79.5773,647
79.5875,631
79.5977,651
79.6079,642
79.6181,617
79.6283,658
79.6385,658
79.6487,643
79.6589,616
79.6691,658
79.6793,660
79.6894,656
79.6996,645
79.7098,640
79.72,626
79.7302,658
79.7404,641
79.7506,671
79.7608,596
79.771,661
79.7812,673
79.7914,670
79.8016,647
79.8118,645
79.822,646
79.8321,649
79.8423,617
79.8525,658
79.8627,655
79.8729,661
79.8831,632
79.8933,591
79.9035,678
79.9137,689
79.9239,620
79.9341,632
79.9443,606
79.9545,685
79.9647,620
79.9748,659
79.985,623
79.9952,656
80.0054,636
80.0156,653
80.0258,649
80.036,605
80.0462,623
80.0564,642
80.0666,652
80.0768,619
80.087,657
80.0972,697
80.1074,662
80.1175,635
80.1277,660
80.1379,659
80.1481,628
80.1583,661
80.1685,667
80.1787,639
80.1889,625
80.1991,683
80.2093,604
80.2195,621
80.2297,632
80.2399,639
80.2501,640
80.2602,686
80.2704,623
80.2806,645
80.2908,692
80.301,628
80.3112,701
80.3214,625
80.3316,647
80.3418,611
80.352,688
80.3622,653
80.3724,671
80.3826,613
80.3928,678
80.4029,663
80.4131,675
80.4233,664
80.4335,641
80.4437,702
80.4539,663
80.4641,642
80.4743,638
80.4845,615
80.4947,614
80.5049,648
80.5151,624
80.5253,659
80.5355,677
80.5456,636
80.5558,663
80.566,660
80.5762,601
80.5864,648
80.5966,614
80.6068,605
80.617,647
80.6272,670
80.6374,694
80.6476,674
80.6578,643
80.668,690
80.6782,651
80.6883,625
80.6985,607
80.7087,647
80.7189,633
80.7291,605
80.7393,626
80.7495,641
80.7597,625
80.7699,667
80.7801,664
80.7903,644
80.8005,635
80.8107,666
80.8209,681
80.831,629
80.8412,604
80.8514,582
80.8616,632
80.8718,677
80.882,688
80.8922,695
80.9024,634
80.9126,671
80.9228,662
80.933,664
80.9432,667
80.9534,615
80.9636,640
80.9737,639
80.9839,610
80.9941,665
81.0043,692
81.0145,650
81.0247,629
81.0349,603
81.0451,646
81.0553,675
81.0655,617
81.0757,596
81.0859,631
81.0961,649
81.1063,642
81.1164,661
81.1266,652
81.1368,599
81.147,632
81.1572,618
81.1674,606
81.1776,640
81.1878,614
81.198,626
81.2082,631
81.2184,677
81.2286,673
81.2388,618
81.249,642
81.2591,626
81.2693,668
81.2795,679
81.2897,629
81.2999,662
81.3101,660
81.3203,653
81.3305,626
81.3407,657
81.3509,595
81.3611,658
81.3713,621
81.3815,675
81.3917,675
81.4018,675
81.412,677
81.4222,661
81.4324,642
81.4426,644
81.4528,664
81.463,678
81.4732,633
81.4834,656
81.4936,644
81.5038,618
81.514,682
81.5242,635
81.5344,663
81.5445,647
81.5547,641
81.5649,640
81.5751,647
81.5853,648
81.5955,673
81.6057,641
81.6159,645
81.6261,637
81.6363,665
81.6465,667
81.6567,684
81.6669,659
81.6771,637
81.6872,681
81.6974,660
81.7076,623
81.7178,649
81.728,612
81.7382,622
81.7484,622
81.7586,649
81.7688,648
81.779,662
81.7892,634
81.7994,636
81.8096,638
81.8198,678
81.8299,669
81.8401,673
81.8503,646
81.8605,669
81.8707,629
81.8809,620
81.8911,625
81.9013,674
81.9115,663
81.9217,698
81.9319,621
81.9421,663
81.9523,633
81.9625,634
81.9726,681
81.9828,688
81.993,692
82.0032,649
82.0134,617
82.0236,650
82.0338,638
82.044,685
82.0542,650
82.0644,644
82.0746,691
82.0848,641
82.095,643
82.1052,640
82.1153,619
82.1255,612
82.1357,720
82.1459,661
82.1561,629
82.1663,668
82.1765,677
82.1867,619
82.1969,604
82.2071,660
82.2173,635
82.2275,631
82.2377,661
82.2479,650
82.258,664
82.2682,662
82.2784,648
82.2886,646
82.2988,667
82.309,673
82.3192,666
82.3294,641
82.3396,633
82.3498,656
82.36,612
82.3702,704
82.3804,689
82.3906,672
82.4007,655
82.4109,680
82.4211,659
82.4313,641
82.4415,673
82.4517,675
82.4619,672
82.4721,644
82.4823,692
82.4925,644
82.5027,685
82.5129,704
82.5231,670
82.5333,637
82.5434,663
82.5536,664
82.5638,658
82.574,673
82.5842,692
82.5944,673
82.6046,694
82.6148,666
82.625,600
82.6352,653
82.6454,634
82.6556,654
82.6658,653
82.676,707
82.6861,656
82.6963,672
82.7065,655
82.7167,627
82.7269,677
82.7371,656
82.7473,658
82.7575,687
82.7677,696
82.7779,678
82.7881,627
82.7983,671
82.8085,640
82.8187,665
82.8288,659
82.839,662
82.8492,705
82.8594,646
82.8696,646
82.8798,593
82.89,641
82.9002,659
82.9104,653
82.9206,657
82.9308,608
82.941,661
82.9512,668
82.9614,688
82.9715,646
82.9817,626
82.9919,632
83.0021,663
83.0123,663
83.0225,634
83.0327,648
83.0429,620
83.0531,665
83.0633,635
83.0735,667
83.0837,643
83.0939,663
83.1041,660
83.1142,631
83.1244,685
83.1346,643
83.1448,631
83.155,698
83.1652,616
83.1754,663
83.1856,697
83.1958,627
83.206,603
83.2162,660
83.2264,676
83.2366,679
83.2468,638
83.2569,702
83.2671,655
83.2773,640
83.2875,631
83.2977,678
83.3079,702
83.3181,661
83.3283,693
83.3385,658
83.3487,646
83.3589,660
83.3691,680
83.3793,676
83.3895,655
83.3996,630
83.4098,641
83.42,643
83.4302,663
83.4404,576
83.4506,663
83.4608,678
83.471,667
83.4812,687
83.4914,631
83.5016,664
83.5118,621
83.522,624
83.5322,673
83.5423,701
83.5525,674
83.5627,698
83.5729,651
83.5831,625
83.5933,668
83.6035,676
83.6137,646
83.6239,634
83.6341,645
83.6443,668
83.6545,643
83.6647,717
83.6749,638
83.685,651
83.6952,661
83.7054,678
83.7156,685
83.7258,651
83.736,605
83.7462,650
83.7564,669
83.7666,615
83.7768,693
83.787,650
83.7972,626
83.8074,680
83.8176,647
83.8277,649
83.8379,654
83.8481,659
83.8583,621
83.8685,666
83.8787,661
83.8889,666
83.8991,674
83.9093,664
83.9195,639
83.9297,648
83.9399,683
83.9501,640
83.9603,604
83.9704,622
83.9806,598
83.9908,676
84.001,654
84.0112,660
84.0214,659
84.0316,641
84.0418,648
84.052,686
84.0622,685
84.0724,647
84.0826,675
84.0928,694
84.103,645
84.1131,624
84.1233,660
84.1335,627
84.1437,670
84.1539,642
84.1641,663
84.1743,674
84.1845,648
84.1947,652
84.2049,695
84.2151,656
84.2253,688
84.2355,674
84.2457,708
84.2558,611
84.266,696
84.2762,647
84.2864,643
84.2966,655
84.3068,652
84.317,639
84.3272,704
84.3374,655
84.3476,648
84.3578,651
84.368,648
84.3782,666
84.3884,675
84.3985,706
84.4087,667
84.4189,676
84.4291,672
84.4393,633
84.4495,616
84.4597,669
84.4699,661
84.4801,627
84.4903,678
84.5005,632
84.5107,617
84.5209,637
84.5311,653
84.5412,686
84.5514,618
84.5616,654
84.5718,694
84.582,650
84.5922,618
84.6024,661
84.6126,663
84.6228,583
84.633,681
84.6432,643
84.6534,652
84.6636,696
84.6738,680
84.6839,630
84.6941,677
84.7043,684
84.7145,665
84.7247,645
84.7349,688
84.7451,675
84.7553,667
84.7655,627
84.7757,662
84.7859,634
84.7961,693
84.8063,593
84.8165,652
84.8266,679
84.8368,690
84.847,706
84.8572,687
84.8674,642
84.8776,642
84.8878,669
84.898,640
84.9082,560
84.9184,648
84.9286,621
84.9388,681
84.949,702
84.9592,718
84.9693,652
84.9795,624
84.9897,632
84.9999,643
85.0101,661
85.0203,615
85.0305,640
85.0407,682
85.0509,650
85.0611,655
85.0713,693
85.0815,683
85.0917,678
85.1019,645
85.112,670
85.1222,652
85.1324,652
85.1426,648
85.1528,679
85.163,673
85.1732,657
85.1834,684
85.1936,649
85.2038,654
85.214,638
85.2242,638
85.2344,688
85.2446,612
85.2547,649
85.2649,678
85.2751,630
85.2853,679
85.2955,665
85.3057,613
85.3159,614
85.3261,683
85.3363,620
85.3465,655
85.3567,625
85.3669,666
85.3771,706
85.3873,636
85.3974,708
85.4076,651
85.4178,660
85.428,631
85.4382,676
85.4484,656
85.4586,618
85.4688,683
85.479,642
85.4892,695
85.4994,611
85.5096,657
85.5198,644
85.53,634
85.5402,629
85.5503,671
85.5605,646
85.5707,646
85.5809,672
85.5911,711
85.6013,609
85.6115,632
85.6217,652
85.6319,680
85.6421,661
85.6523,695
85.6625,683
85.6727,640
85.6829,670
85.693,664
85.7032,633
85.7134,642
85.7236,630
85.7338,637
85.744,621
85.7542,599
85.7644,631
85.7746,644
85.7848,636
85.795,667
85.8052,655
85.8154,663
85.8256,618
85.8357,711
85.8459,636
85.8561,647
85.8663,689
85.8765,659
85.8867,656
85.8969,648
85.9071,654
85.9173,626
85.9275,642
85.9377,689
85.9479,668
85.9581,655
85.9683,647
85.9784,641
85.9886,651
85.9988,666
86.009,672
86.0192,624
86.0294,631
86.0396,638
86.0498,678
86.06,652
86.0702,619
86.0804,675
86.0906,676
86.1008,706
86.111,688
86.1211,668
86.1313,694
86.1415,616
86.1517,678
86.1619,630
86.1721,668
86.1823,659
86.1925,693
86.2027,656
86.2129,646
86.2231,672
86.2333,621
86.2435,662
86.2537,647
86.2638,662
86.274,644
86.2842,647
86.2944,643
86.3046,635
86.3148,646
86.325,657
86.3352,631
86.3454,678
86.3556,620
86.3658,675
86.376,662
86.3862,654
86.3964,612
86.4065,648
86.4167,653
86.4269,665
86.4371,629
86.4473,700
86.4575,616
86.4677,659
86.4779,674
86.4881,597
86.4983,656
86.5085,633
86.5187,627
86.5289,637
86.5391,638
86.5492,672
86.5594,654
86.5696,673
86.5798,651
86.59,627
86.6002,613
86.6104,651
86.6206,620
86.6308,621
86.641,696
86.6512,634
86.6614,657
86.6716,605
86.6818,702
86.6919,707
86.7021,688
86.7123,672
86.7225,638
86.7327,669
86.7429,691
86.7531,690
86.7633,653
86.7735,650
86.7837,700
86.7939,636
86.8041,656
86.8143,652
86.8245,612
86.8346,588
86.8448,628
86.855,604
86.8652,652
86.8754,682
86.8856,668
86.8958,624
86.906,627
86.9162,691
86.9264,614
86.9366,704
86.9468,648
86.957,672
86.9672,638
86.9773,651
86.9875,674
86.9977,688
87.0079,668
87.0181,667
87.0283,689
87.0385,646
87.0487,657
87.0589,726
87.0691,654
87.0793,619
87.0895,642
87.0997,640
87.1099,648
87.12,689
87.1302,634
87.1404,696
87.1506,642
87.1608,649
87.171,648
87.1812,618
87.1914,614
87.2016,644
87.2118,670
87.222,652
87.2322,611
87.2424,642
87.2526,655
87.2627,650
87.2729,677
87.2831,607
87.2933,645
87.3035,634
87.3137,660
87.3239,644
87.3341,688
87.3443,624
87.3545,663
87.3647,673
87.3749,662
87.3851,696
87.3953,672
87.4054,655
87.4156,671
87.4258,668
87.436,648
87.4462,654
87.4564,626
87.4666,638
87.4768,675
87.487,686
87.4972,625
87.5074,639
87.5176,659
87.5278,632
87.538,634
87.5481,678
87.5583,655
87.5685,651
87.5787,666
87.5889,687
87.5991,645
87.6093,621
87.6195,674
87.6297,626
87.6399,620
87.6501,682
87.6603,652
87.6705,645
87.6807,656
87.6908,649
87.701,710
87.7112,679
87.7214,613
87.7316,671
87.7418,655
87.752,679
87.7622,670
87.7724,674
87.7826,701
87.7928,654
87.803,617
87.8132,666
87.8234,670
87.8335,675
87.8437,687
87.8539,658
87.8641,663
87.8743,627
87.8845,632
87.8947,625
87.9049,679
87.9151,690
87.9253,623
87.9355,668
87.9457,704
87.9559,641
87.9661,649
87.9762,656
87.9864,653
87.9966,614
88.0068,673
88.017,695
88.0272,615
88.0374,661
88.0476,703
88.0578,663
88.068,679
88.0782,660
88.0884,662
88.0986,677
88.1088,644
88.1189,677
88.1291,678
88.1393,671
88.1495,624
88.1597,648
88.1699,666
88.1801,664
88.1903,689
88.2005,632
88.2107,636
88.2209,692
88.2311,631
88.2413,659
88.2515,692
88.2616,691
88.2718,604
88.282,666
88.2922,707
88.3024,686
88.3126,635
88.3228,618
88.333,681
88.3432,638
88.3534,637
88.3636,704
88.3738,637
88.384,694
88.3942,595
88.4043,650
88.4145,613
88.4247,672
88.4349,636
88.4451,638
88.4553,654
88.4655,632
88.4757,636
88.4859,654
88.4961,681
88.5063,644
88.5165,682
88.5267,665
88.5369,611
88.547,690
88.5572,618
88.5674,646
88.5776,622
88.5878,661
88.598,637
88.6082,646
88.6184,659
88.6286,647
88.6388,640
88.649,651
88.6592,635
88.6694,609
88.6796,621
88.6897,688
88.6999,634
88.7101,678
88.7203,649
88.7305,649
88.7407,613
88.7509,637
88.7611,682
88.7713,680
88.7815,654
88.7917,680
88.8019,618
88.8121,668
88.8223,640
88.8324,661
88.8426,634
88.8528,668
88.863,675
88.8732,650
88.8834,640
88.8936,631
88.9038,628
88.914,636
88.9242,647
88.9344,630
88.9446,650
88.9548,657
88.965,677
88.9751,608
88.9853,651
88.9955,630
89.0057,647
89.0159,630
89.0261,661
89.0363,651
89.0465,657
89.0567,642
89.0669,679
89.0771,642
89.0873,619
89.0975,600
89.1077,669
89.1178,625
89.128,652
89.1382,615
89.1484,621
89.1586,641
89.1688,632
89.179,637
89.1892,640
89.1994,624
89.2096,674
89.2198,628
89.23,618
89.2402,664
89.2504,621
89.2605,633
89.2707,612
89.2809,624
89.2911,652
89.3013,643
89.3115,691
89.3217,648
89.3319,625
89.3421,610
89.3523,647
89.3625,613
89.3727,650
89.3829,703
89.3931,636
89.4032,639
89.4134,653
89.4236,638
89.4338,649
89.444,680
89.4542,651
89.4644,621
89.4746,595
89.4848,617
89.495,596
89.5052,641
89.5154,607
89.5256,594
89.5358,661
89.5459,595
89.5561,626
89.5663,635
89.5765,719
89.5867,666
89.5969,617
89.6071,635
89.6173,621
89.6275,628
89.6377,603
89.6479,623
89.6581,607
89.6683,603
89.6785,619
89.6886,623
89.6988,644
89.709,667
89.7192,634
89.7294,618
89.7396,633
89.7498,644
89.76,619
89.7702,655
89.7804,645
89.7906,635
89.8008,634
89.811,619
89.8212,601
89.8313,653
89.8415,611
89.8517,647
89.8619,637
89.8721,616
89.8823,650
89.8925,643
89.9027,617
89.9129,641
89.9231,612
89.9333,652
89.9435,646
89.9537,613
89.9639,624
89.974,635
89.9842,647
89.9944,603
90.0046,623
90.0148,670
90.025,643
90.0352,639
90.0454,593
90.0556,656
90.0658,646
90.076,664
90.0862,678
90.0964,632
90.1066,622
90.1167,627
90.1269,591
90.1371,624
90.1473,611
90.1575,659
90.1677,608
90.1779,622
90.1881,623
90.1983,659
90.2085,622
90.2187,664
90.2289,637
90.2391,643
90.2493,640
90.2594,648
90.2696,653
90.2798,680
90.29,646
90.3002,664
90.3104,679
90.3206,661
90.3308,652
90.341,605
90.3512,642
90.3614,644
90.3716,597
90.3818,668
90.392,632
90.4021,687
90.4123,618
90.4225,647
90.4327,654
90.4429,652
90.4531,618
90.4633,597
90.4735,591
90.4837,679
90.4939,610
90.5041,697
90.5143,619
90.5245,598
90.5347,634
90.5448,640
90.555,653
90.5652,626
90.5754,687
90.5856,641
90.5958,674
90.606,598
90.6162,633
90.6264,648
90.6366,646
90.6468,642
90.657,614
90.6672,634
90.6774,655
90.6875,659
90.6977,691
90.7079,602
90.7181,645
90.7283,678
90.7385,634
90.7487,611
90.7589,584
90.7691,671
90.7793,627
90.7895,664
90.7997,624
90.8099,650
90.8201,641
90.8302,663
90.8404,684
90.8506,625
90.8608,681
90.871,637
90.8812,637
90.8914,652
90.9016,582
90.9118,627
90.922,642
90.9322,626
90.9424,631
90.9526,566
90.9628,689
90.9729,622
90.9831,642
90.9933,656
91.0035,614
91.0137,637
91.0239,675
91.0341,604
91.0443,617
91.0545,628
91.0647,647
91.0749,639
91.0851,611
91.0953,662
91.1055,609
91.1156,626
91.1258,641
91.136,633
91.1462,666
91.1564,645
91.1666,624
91.1768,667
91.187,649
91.1972,672
91.2074,640
91.2176,647
91.2278,633
91.238,593
91.2482,664
91.2583,598
91.2685,627
91.2787,613
91.2889,598
91.2991,635
91.3093,596
91.3195,632
91.3297,602
91.3399,669
91.3501,610
91.3603,662
91.3705,620
91.3807,593
91.3909,582
91.401,685
91.4112,696
91.4214,636
91.4316,607
91.4418,641
91.452,670
91.4622,605
91.4724,632
91.4826,645
91.4928,585
91.503,660
91.5132,645
91.5234,609
91.5336,576
91.5438,600
91.5539,583
91.5641,606
91.5743,628
91.5845,624
91.5947,662
91.6049,587
91.6151,637
91.6253,673
91.6355,602
91.6457,683
91.6559,652
91.6661,604
91.6763,626
91.6865,629
91.6966,599
91.7068,611
91.717,633
91.7272,624
91.7374,607
91.7476,588
91.7578,609
91.768,654
91.7782,661
91.7884,624
91.7986,660
91.8088,580
91.819,620
91.8292,610
91.8393,646
91.8495,648
91.8597,632
91.8699,579
91.8801,586
91.8903,617
91.9005,599
91.9107,624
91.9209,534
91.9311,665
91.9413,614
91.9515,668
91.9617,613
91.9719,595
91.982,639
91.9922,623
92.0024,639
92.0126,614
92.0228,616
92.033,559
92.0432,636
92.0534,616
92.0636,595
92.0738,623
92.084,612
92.0942,645
92.1044,551
92.1146,615
92.1247,629
92.1349,583
92.1451,609
92.1553,589
92.1655,638
92.1757,639
92.1859,617
92.1961,635
92.2063,641
92.2165,614
92.2267,641
92.2369,637
92.2471,602
92.2573,610
92.2674,589
92.2776,614
92.2878,614
92.298,646
92.3082,655
92.3184,593
92.3286,609
92.3388,603
92.349,676
92.3592,598
92.3694,613
92.3796,608
92.3898,600
92.4,603
92.4101,600
92.4203,641
92.4305,581
92.4407,635
92.4509,632
92.4611,592
92.4713,657
92.4815,601
92.4917,632
92.5019,595
92.5121,580
92.5223,628
92.5325,614
92.5427,652
92.5528,610
92.563,613
92.5732,617
92.5834,673
92.5936,573
92.6038,657
92.614,647
92.6242,646
92.6344,609
92.6446,616
92.6548,628
92.665,593
92.6752,660
92.6854,579
92.6955,626
92.7057,612
92.7159,645
92.7261,674
92.7363,595
92.7465,560
92.7567,650
92.7669,683
92.7771,628
92.7873,647
92.7975,679
92.8077,648
92.8179,588
92.8281,628
92.8382,629
92.8484,566
92.8586,598
92.8688,595
92.879,624
92.8892,636
92.8994,672
92.9096,640
92.9198,611
92.93,622
92.9402,612
92.9504,613
92.9606,622
92.9708,613
92.9809,565
92.9911,638
93.0013,591
93.0115,635
93.0217,654
93.0319,591
93.0421,604
93.0523,606
93.0625,625
93.0727,643
93.0829,649
93.0931,594
93.1033,607
93.1135,636
93.1236,629
93.1338,640
93.144,653
93.1542,606
93.1644,605
93.1746,605
93.1848,607
93.195,620
93.2052,624
93.2154,654
93.2256,626
93.2358,561
93.246,614
93.2562,597
93.2663,632
93.2765,581
93.2867,637
93.2969,586
93.3071,634
93.3173,640
93.3275,622
93.3377,599
93.3479,596
93.3581,622
93.3683,650
93.3785,642
93.3887,596
93.3989,603
93.409,647
93.4192,585
93.4294,607
93.4396,630
93.4498,659
93.46,631
93.4702,626
93.4804,619
93.4906,601
93.5008,604
93.511,612
93.5212,595
93.5314,645
93.5416,601
93.5517,595
93.5619,622
93.5721,601
93.5823,650
93.5925,613
93.6027,571
93.6129,614
93.6231,594
93.6333,602
93.6435,597
93.6537,646
93.6639,583
93.6741,588
93.6843,685
93.6944,602
93.7046,617
93.7148,624
93.725,635
93.7352,617
93.7454,615
93.7556,623
93.7658,667
93.776,607
93.7862,651
93.7964,658
93.8066,637
93.8168,661
93.827,632
93.8371,604
93.8473,629
93.8575,603
93.8677,624
93.8779,596
93.8881,607
93.8983,576
93.9085,588
93.9187,627
93.9289,595
93.9391,577
93.9493,619
93.9595,593
93.9697,568
93.9798,624
93.99,580
94.0002,600
94.0104,599
94.0206,586
94.0308,628
94.041,609
94.0512,653
94.0614,581
94.0716,644
94.0818,619
94.092,590
94.1022,604
94.1124,651
94.1225,597
94.1327,616
94.1429,644
94.1531,611
94.1633,564
94.1735,596
94.1837,622
94.1939,583
94.2041,624
94.2143,610
94.2245,576
94.2347,616
94.2449,592
94.2551,659
94.2652,639
94.2754,626
94.2856,631
94.2958,596
94.306,602
94.3162,636
94.3264,620
94.3366,621
94.3468,669
94.357,682
94.3672,572
94.3774,641
94.3876,628
94.3978,619
94.4079,635
94.4181,590
94.4283,608
94.4385,607
94.4487,615
94.4589,615
94.4691,620
94.4793,554
94.4895,593
94.4997,659
94.5099,579
94.5201,636
94.5303,578
94.5405,606
94.5506,627
94.5608,580
94.571,594
94.5812,601
94.5914,591
94.6016,608
94.6118,627
94.622,574
94.6322,596
94.6424,633
94.6526,592
94.6628,590
94.673,573
94.6832,632
94.6933,590
94.7035,639
94.7137,588
94.7239,600
94.7341,623
94.7443,604
94.7545,617
94.7647,611
94.7749,626
94.7851,630
94.7953,589
94.8055,594
94.8157,609
94.8259,631
94.836,609
94.8462,615
94.8564,588
94.8666,560
94.8768,590
94.887,614
94.8972,572
94.9074,613
94.9176,612
94.9278,618
94.938,619
94.9482,579
94.9584,563
94.9686,591
94.9787,561
94.9889,613
94.9991,580
95.0093,607
95.0195,608
95.0297,587
95.0399,602
95.0501,581
95.0603,628
95.0705,624
95.0807,563
95.0909,600
95.1011,633
95.1113,578
95.1214,602
95.1316,583
95.1418,594
95.152,550
95.1622,565
95.1724,601
95.1826,619
95.1928,599
95.203,600
95.2132,595
95.2234,595
95.2336,551
95.2438,590
95.254,619
95.2641,562
95.2743,612
95.2845,627
95.2947,567
95.3049,658
95.3151,632
95.3253,553
95.3355,590
95.3457,613
95.3559,594
95.3661,605
95.3763,608
95.3865,591
95.3967,570
95.4068,578
95.417,576
95.4272,611
95.4374,645
95.4476,591
95.4578,556
95.468,589
95.4782,585
95.4884,595
95.4986,639
95.5088,594
95.519,636
95.5292,567
95.5394,560
95.5495,626
95.5597,570
95.5699,606
95.5801,596
95.5903,578
95.6005,591
95.6107,620
95.6209,595
95.6311,610
95.6413,599
95.6515,563
95.6617,576
95.6719,615
95.6821,646
95.6922,613
95.7024,556
95.7126,608
95.7228,639
95.733,584
95.7432,587
95.7534,625
95.7636,607
95.7738,586
95.784,572
95.7942,658
95.8044,583
95.8146,603
95.8248,628
95.8349,567
95.8451,557
95.8553,610
95.8655,619
95.8757,557
95.8859,553
95.8961,591
95.9063,600
95.9165,598
95.9267,571
95.9369,561
95.9471,608
95.9573,619
95.9675,588
95.9776,584
95.9878,588
95.998,602
96.0082,584
96.0184,566
96.0286,598
96.0388,627
96.049,576
96.0592,612
96.0694,573
96.0796,594
96.0898,565
96.1,600
96.1102,613
96.1203,594
96.1305,591
96.1407,609
96.1509,608
96.1611,613
96.1713,593
96.1815,583
96.1917,598
96.2019,574
96.2121,593
96.2223,606
96.2325,596
96.2427,587
96.2529,625
96.263,596
96.2732,606
96.2834,616
96.2936,574
96.3038,601
96.314,587
96.3242,576
96.3344,573
96.3446,594
96.3548,608
96.365,562
96.3752,601
96.3854,606
96.3956,622
96.4057,600
96.4159,580
96.4261,615
96.4363,611
96.4465,627
96.4567,602
96.4669,620
96.4771,559
96.4873,594
96.4975,584
96.5077,596
96.5179,571
96.5281,594
96.5383,603
96.5484,544
96.5586,553
96.5688,570
96.579,588
96.5892,649
96.5994,611
96.6096,605
96.6198,627
96.63,557
96.6402,589
96.6504,517
96.6606,622
96.6708,601
96.681,577
96.6911,584
96.7013,594
96.7115,607
96.7217,562
96.7319,598
96.7421,631
96.7523,587
96.7625,647
96.7727,593
96.7829,544
96.7931,583
96.8033,586
96.8135,565
96.8237,624
96.8338,576
96.844,558
96.8542,604
96.8644,572
96.8746,605
96.8848,611
96.895,565
96.9052,583
96.9154,635
96.9256,581
96.9358,635
96.946,583
96.9562,657
96.9664,621
96.9765,587
96.9867,580
96.9969,600
97.0071,566
97.0173,567
97.0275,580
97.0377,604
97.0479,548
97.0581,580
97.0683,558
97.0785,576
97.0887,597
97.0989,629
97.1091,563
97.1192,586
97.1294,556
97.1396,615
97.1498,564
97.16,614
97.1702,578
97.1804,550
97.1906,615
97.2008,599
97.211,572
97.2212,562
97.2314,613
97.2416,620
97.2518,632
97.2619,589
97.2721,573
97.2823,611
97.2925,594
97.3027,587
97.3129,611
97.3231,588
97.3333,559
97.3435,552
97.3537,564
97.3639,583
97.3741,608
97.3843,564
97.3945,584
97.4046,608
97.4148,568
97.425,552
97.4352,646
97.4454,575
97.4556,596
97.4658,594
97.476,540
97.4862,577
97.4964,598
97.5066,574
97.5168,574
97.527,621
97.5372,612
97.5474,582
97.5575,614
97.5677,558
97.5779,611
97.5881,564
97.5983,583
97.6085,567
97.6187,571
97.6289,596
97.6391,578
97.6493,608
97.6595,602
97.6697,554
97.6799,638
97.6901,575
97.7002,580
97.7104,561
97.7206,597
97.7308,608
97.741,591
97.7512,589
97.7614,573
97.7716,576
97.7818,610
97.792,619
97.8022,574
97.8124,587
97.8226,582
97.8328,606
97.8429,532
97.8531,614
97.8633,580
97.8735,599
97.8837,615
97.8939,582
97.9041,603
97.9143,587
97.9245,573
97.9347,562
97.9449,581
97.9551,565
97.9653,580
97.9755,566
97.9856,556
97.9958,559
98.006,596
98.0162,557
98.0264,556
98.0366,502
98.0468,552
98.057,583
98.0672,591
98.0774,593
98.0876,629
98.0978,614
98.108,598
98.1182,557
98.1283,610
98.1385,570
98.1487,556
98.1589,612
98.1691,548
98.1793,598
98.1895,571
98.1997,563
98.2099,597
98.2201,594
98.2303,550
98.2405,604
98.2507,570
98.2609,585
98.271,579
98.2812,580
98.2914,560
98.3016,599
98.3118,571
98.322,613
98.3322,596
98.3424,595
98.3526,610
98.3628,590
98.373,601
98.3832,622
98.3934,634
98.4036,607
98.4137,560
98.4239,598
98.4341,570
98.4443,604
98.4545,558
98.4647,585
98.4749,635
98.4851,615
98.4953,540
98.5055,599
98.5157,602
98.5259,568
98.5361,567
98.5463,610
98.5564,578
98.5666,582
98.5768,605
98.587,620
98.5972,567
98.6074,590
98.6176,550
98.6278,570
98.638,626
98.6482,591
98.6584,560
98.6686,592
98.6788,567
98.689,580
98.6991,598
98.7093,610
98.7195,609
98.7297,603
98.7399,591
98.7501,579
98.7603,593
98.7705,573
98.7807,566
98.7909,572
98.8011,536
98.8113,563
98.8215,624
98.8317,582
98.8418,577
98.852,610
98.8622,546
98.8724,576
98.8826,560
98.8928,594
98.903,583
98.9132,566
98.9234,536
98.9336,565
98.9438,617
98.954,557
98.9642,581
98.9744,612
98.9845,534
98.9947,601
99.0049,576
99.0151,547
99.0253,625
99.0355,549
99.0457,615
99.0559,588
99.0661,565
99.0763,564
99.0865,563
99.0967,581
99.1069,593
99.1171,583
99.1272,526
99.1374,593
99.1476,534
99.1578,622
99.168,572
99.1782,591
99.1884,570
99.1986,573
99.2088,571
99.219,594
99.2292,611
99.2394,583
99.2496,557
99.2598,580
99.2699,582
99.2801,599
99.2903,544
99.3005,535
99.3107,638
99.3209,574
99.3311,586
99.3413,605
99.3515,572
99.3617,570
99.3719,612
99.3821,595
99.3923,568
99.4025,561
99.4126,608
99.4228,596
99.433,597
99.4432,593
99.4534,572
99.4636,592
99.4738,588
99.484,549
99.4942,571
99.5044,553
99.5146,591
99.5248,581
99.535,558
99.5452,515
99.5553,565
99.5655,576
99.5757,565
99.5859,588
99.5961,563
99.6063,546
99.6165,601
99.6267,530
99.6369,579
99.6471,545
99.6573,573
99.6675,584
99.6777,564
99.6879,550
99.698,512
99.7082,568
99.7184,593
99.7286,553
99.7388,579
99.749,568
99.7592,581
99.7694,601
99.7796,590
99.7898,594
99.8,618
99.8102,564
99.8204,573
99.8306,598
99.8407,544
99.8509,491
99.8611,586
99.8713,555
99.8815,544
99.8917,538
99.9019,571
99.9121,617
99.9223,573
99.9325,576
99.9427,596
99.9529,554
99.9631,566
99.9733,626
99.9834,561
99.9936,581
100.004,610
100.014,558
100.024,560
100.034,609
100.045,532
100.055,577
100.065,571
100.075,604
