2theta (400C),intensity (400C)
0.36387,-2193.19949
0.36925,-2192.74197
0.37463,-2191.76634
0.38001,-2190.26156
0.38539,-2189.65924
0.39077,-2189.53572
0.39615,-2189.95293
0.40153,-2189.44018
0.40691,-2188.73501
0.41229,-2186.40053
0.41767,-2185.97417
0.42305,-2185.44983
0.42843,-2185.44797
0.43382,-2185.62883
0.4392,-2185.44689
0.44458,-2184.72781
0.44996,-2184.2029
0.45534,-2183.93728
0.46072,-2183.84753
0.4661,-2183.62083
0.47148,-2183.93252
0.47686,-2183.33455
0.48224,-2182.81027
0.48762,-2182.33139
0.493,-2181.9273
0.49838,-2181.61221
0.50376,-2181.06265
0.50914,-2180.91375
0.51452,-2180.81431
0.5199,-2180.52109
0.52528,-2180.36648
0.53066,-2179.97543
0.53604,-2179.45521
0.54142,-2178.92004
0.5468,-2178.65888
0.55218,-2178.15896
0.55756,-2177.78342
0.56294,-2177.11006
0.56832,-2176.27597
0.5737,-2175.59893
0.57908,-2173.6261
0.58447,-2170.57945
0.58985,-2166.01004
0.59523,-2160.18699
0.60061,-2151.4524
0.60599,-2143.42979
0.61137,-2135.83879
0.61675,-2128.0884
0.62213,-2119.7377
0.62751,-2110.94444
0.63289,-2100.41422
0.63827,-2091.91932
0.64365,-2082.55005
0.64903,-2073.59281
0.65441,-2066.02643
0.65979,-2062.41083
0.66517,-2057.15067
0.67055,-2053.98227
0.67593,-2047.22715
0.68131,-2044.18363
0.68669,-2036.57241
0.69207,-2031.77111
0.69745,-2025.46737
0.70283,-2019.56112
0.70821,-2011.79381
0.71359,-2005.69239
0.71897,-1999.0945
0.72435,-1993.38031
0.72974,-1988.15035
0.73512,-1983.11919
0.7405,-1978.38501
0.74588,-1974.33942
0.75126,-1970.78455
0.75664,-1966.99247
0.76202,-1964.23587
0.7674,-1961.30014
0.77278,-1959.51584
0.77816,-1957.19437
0.78354,-1955.71961
0.78892,-1954.11051
0.7943,-1953.96198
0.79968,-1953.14267
0.80506,-1953.67853
0.81044,-1953.45182
0.81582,-1954.01746
0.8212,-1954.0611
0.82658,-1955.10337
0.83196,-1955.5618
0.83734,-1957.14212
0.84272,-1958.27799
0.8481,-1960.07117
0.85348,-1961.6269
0.85886,-1963.51401
0.86424,-1965.90171
0.86962,-1968.32444
0.875,-1970.91541
0.88039,-1972.98899
0.88577,-1975.20621
0.89115,-1977.50077
0.89653,-1980.00299
0.90191,-1982.07987
0.90729,-1984.11274
0.91267,-1986.30333
0.91805,-1988.67635
0.92343,-1990.54279
0.92881,-1992.42489
0.93419,-1994.19777
0.93957,-1996.12027
0.94495,-1997.82528
0.95033,-1999.63977
0.95571,-2001.42524
0.96109,-2002.90461
0.96647,-2004.40096
0.97185,-2005.69492
0.97723,-2007.24567
0.98261,-2008.5458
0.98799,-2010.01093
0.99337,-2011.0775
0.99875,-2012.21508
1.00413,-2013.14382
1.00951,-2014.53959
1.01489,-2015.79081
1.02027,-2017.08861
1.02565,-2018.16042
1.03104,-2019.55858
1.03642,-2020.76535
1.0418,-2021.74965
1.04718,-2022.77488
1.05256,-2023.83745
1.05794,-2025.12359
1.06332,-2026.03843
1.0687,-2026.87357
1.07408,-2027.4661
1.07946,-2028.31995
1.08484,-2029.31496
1.09022,-2030.43227
1.0956,-2031.02062
1.10098,-2031.64541
1.10636,-2032.30436
1.11174,-2033.13332
1.11712,-2034.02771
1.1225,-2034.626
1.12788,-2035.20594
1.13326,-2035.78664
1.13864,-2036.30739
1.14402,-2036.60971
1.1494,-2037.02199
1.15478,-2037.52292
1.16016,-2038.34026
1.16554,-2038.9486
1.17092,-2039.35311
1.1763,-2039.62711
1.18169,-2040.17093
1.18707,-2040.64016
1.19245,-2041.13919
1.19783,-2041.60387
1.20321,-2042.02433
1.20859,-2042.332
1.21397,-2042.69039
1.21935,-2042.99581
1.22473,-2043.55918
1.23011,-2044.06549
1.23549,-2044.57456
1.24087,-2044.78171
1.24625,-2045.24511
1.25163,-2045.61254
1.25701,-2046.04099
1.26239,-2046.41378
1.26777,-2046.93753
1.27315,-2047.15372
1.27853,-2047.38224
1.28391,-2047.64507
1.28929,-2048.00556
1.29467,-2048.34114
1.30005,-2048.41474
1.30543,-2048.57351
1.31081,-2048.84998
1.31619,-2049.32187
1.32157,-2049.59633
1.32696,-2049.89077
1.33234,-2050.15351
1.33772,-2050.32296
1.3431,-2050.21431
1.34848,-2050.35297
1.35386,-2050.58086
1.35924,-2050.92519
1.36462,-2051.19075
1.37,-2051.21169
1.37538,-2051.41604
1.38076,-2051.49048
1.38614,-2051.82433
1.39152,-2051.81585
1.3969,-2051.93416
1.40228,-2051.91727
1.40766,-2052.08133
1.41304,-2052.12603
1.41842,-2052.19921
1.4238,-2052.22983
1.42918,-2052.34917
1.43456,-2052.40792
1.43994,-2052.37339
1.44532,-2052.1908
1.4507,-2052.33672
1.45608,-2052.40397
1.46146,-2052.60073
1.46684,-2052.65332
1.47222,-2052.56368
1.47761,-2052.35234
1.48299,-2052.15706
1.48837,-2052.28856
1.49375,-2052.39423
1.49913,-2052.54999
1.50451,-2052.65404
1.50989,-2052.47957
1.51527,-2052.35685
1.52065,-2052.28844
1.52603,-2052.29972
1.53141,-2052.32163
1.53679,-2052.25808
1.54217,-2052.47977
1.54755,-2052.46503
1.55293,-2052.42279
1.55831,-2052.19237
1.56369,-2052.13996
1.56907,-2052.09516
1.57445,-2052.15448
1.57983,-2052.25054
1.58521,-2052.2065
1.59059,-2052.28957
1.59597,-2052.12017
1.60135,-2051.9964
1.60673,-2051.75559
1.61211,-2051.98615
1.61749,-2051.86412
1.62287,-2051.83986
1.62826,-2051.71685
1.63364,-2051.8098
1.63902,-2051.58117
1.6444,-2051.46682
1.64978,-2051.1921
1.65516,-2051.26633
1.66054,-2051.35299
1.66592,-2051.38216
1.6713,-2051.26868
1.67668,-2051.17774
1.68206,-2051.17693
1.68744,-2051.05539
1.69282,-2050.93689
1.6982,-2050.79172
1.70358,-2050.82879
1.70896,-2050.75161
1.71434,-2050.61956
1.71972,-2050.34504
1.7251,-2050.18045
1.73048,-2049.80791
1.73586,-2049.74608
1.74124,-2049.67847
1.74662,-2049.64301
1.752,-2049.38868
1.75738,-2049.32207
1.76276,-2049.18712
1.76814,-2049.08196
1.77352,-2049.08587
1.77891,-2049.10259
1.78429,-2048.80448
1.78967,-2048.53353
1.79505,-2048.34862
1.80043,-2048.10837
1.80581,-2047.88874
1.81119,-2047.72748
1.81657,-2047.79461
1.82195,-2047.69437
1.82733,-2047.58252
1.83271,-2047.49985
1.83809,-2047.46288
1.84347,-2047.20388
1.84885,-2047.11676
1.85423,-2046.92247
1.85961,-2046.89769
1.86499,-2046.62183
1.87037,-2046.56951
1.87575,-2046.36655
1.88113,-2046.22562
1.88651,-2045.87771
1.89189,-2045.64498
1.89727,-2045.4856
1.90265,-2045.36936
1.90803,-2045.26471
1.91341,-2045.09786
1.91879,-2044.95252
1.92418,-2044.7627
1.92956,-2044.49897
1.93494,-2044.2903
1.94032,-2044.27436
1.9457,-2044.33068
1.95108,-2044.19643
1.95646,-2043.8703
1.96184,-2043.61551
1.96722,-2043.4291
1.9726,-2043.37702
1.97798,-2043.27472
1.98336,-2043.15183
1.98874,-2042.99549
1.99412,-2042.85378
1.9995,-2042.85793
2.00488,-2042.68883
2.01026,-2042.51813
2.01564,-2042.27584
2.02102,-2042.23334
2.0264,-2042.2468
2.03178,-2042.39876
2.03716,-2042.39287
2.04254,-2042.40969
2.04792,-2042.30918
2.0533,-2042.54511
2.05868,-2042.4751
2.06406,-2042.26346
2.06944,-2042.2553
2.07483,-2042.61644
2.08021,-2042.83248
2.08559,-2043.01592
2.09097,-2042.89872
2.09635,-2042.92548
2.10173,-2043.13636
2.10711,-2043.38424
2.11249,-2043.42264
2.11787,-2043.17524
2.12325,-2043.24924
2.12863,-2043.39765
2.13401,-2043.73758
2.13939,-2043.8413
2.14477,-2043.88118
2.15015,-2043.65661
2.15553,-2043.80266
2.16091,-2043.86602
2.16629,-2043.9647
2.17167,-2043.83788
2.17705,-2043.82792
2.18243,-2043.8051
2.18781,-2043.87922
2.19319,-2043.87459
2.19857,-2043.88028
2.20395,-2043.9173
2.20933,-2043.9833
2.21471,-2043.82775
2.22009,-2043.67191
2.22548,-2043.68198
2.23086,-2043.91723
2.23624,-2044.06823
2.24162,-2043.88979
2.247,-2043.84792
2.25238,-2043.6599
2.25776,-2043.63755
2.26314,-2043.67522
2.26852,-2043.63175
2.2739,-2043.47783
2.27928,-2043.29349
2.28466,-2043.18308
2.29004,-2043.03414
2.29542,-2042.96131
2.3008,-2042.8906
2.30618,-2042.91736
2.31156,-2042.76403
2.31694,-2042.56263
2.32232,-2042.18567
2.3277,-2042.1718
2.33308,-2041.89428
2.33846,-2041.83532
2.34384,-2041.51426
2.34922,-2041.47046
2.3546,-2041.07926
2.35998,-2040.90561
2.36536,-2040.72463
2.37074,-2040.65741
2.37613,-2040.31427
2.38151,-2039.99314
2.38689,-2039.73543
2.39227,-2039.47397
2.39765,-2039.13216
2.40303,-2038.73317
2.40841,-2038.50617
2.41379,-2038.11887
2.41917,-2037.70298
2.42455,-2037.3005
2.42993,-2036.83318
2.43531,-2036.50448
2.44069,-2036.16764
2.44607,-2035.80883
2.45145,-2035.28019
2.45683,-2034.70699
2.46221,-2034.19782
2.46759,-2033.66761
2.47297,-2033.27836
2.47835,-2032.80449
2.48373,-2032.2398
2.48911,-2031.60263
2.49449,-2030.85987
2.49987,-2030.04958
2.50525,-2029.38253
2.51063,-2028.59107
2.51601,-2027.83783
2.5214,-2027.21634
2.52678,-2026.54128
2.53216,-2025.87983
2.53754,-2024.9767
2.54292,-2024.17331
2.5483,-2023.2186
2.55368,-2022.28077
2.55906,-2021.36521
2.56444,-2020.44315
2.56982,-2019.37169
2.5752,-2018.28341
2.58058,-2017.27312
2.58596,-2016.15384
2.59134,-2015.11177
2.59672,-2013.98264
2.6021,-2012.84307
2.60748,-2011.4795
2.61286,-2010.19265
2.61824,-2008.82814
2.62362,-2007.57218
2.629,-2006.01174
2.63438,-2004.38535
2.63976,-2002.75391
2.64514,-2001.17626
2.65052,-1999.61271
2.6559,-1997.82398
2.66128,-1996.11557
2.66666,-1994.41491
2.67205,-1992.52005
2.67743,-1990.39512
2.68281,-1988.15363
2.68819,-1985.90802
2.69357,-1983.55733
2.69895,-1981.27939
2.70433,-1978.87897
2.70971,-1976.20966
2.71509,-1973.39948
2.72047,-1970.47232
2.72585,-1967.41843
2.73123,-1964.06409
2.73661,-1960.53415
2.74199,-1956.73417
2.74737,-1952.70997
2.75275,-1948.39838
2.75813,-1943.89765
2.76351,-1939.00724
2.76889,-1933.84839
2.77427,-1928.27094
2.77965,-1922.48291
2.78503,-1916.17725
2.79041,-1909.31141
2.79579,-1901.92414
2.80117,-1893.97794
2.80655,-1885.44721
2.81193,-1876.41535
2.81731,-1866.61588
2.8227,-1856.20621
2.82808,-1844.75559
2.83346,-1832.55225
2.83884,-1819.46174
2.84422,-1805.12479
2.8496,-1789.55219
2.85498,-1772.64008
2.86036,-1754.41483
2.86574,-1734.4007
2.87112,-1712.90094
2.8765,-1689.36432
2.88188,-1664.09076
2.88726,-1635.9043
2.89264,-1605.94666
2.89802,-1572.49286
2.9034,-1536.53888
2.90878,-1496.44562
2.91416,-1453.16242
2.91954,-1405.31037
2.92492,-1353.18012
2.9303,-1296.02942
2.93568,-1233.62458
2.94106,-1165.20667
2.94644,-1090.67603
2.95182,-1009.77906
2.9572,-921.6764
2.96258,-827.20008
2.96796,-725.8169
2.97335,-618.10181
2.97873,-503.55664
2.98411,-384.93006
2.98949,-260.63709
2.99487,-134.75086
3.00025,-7.32141
3.00563,117.42981
3.01101,239.42297
3.01639,354.53088
3.02177,459.17981
3.02715,550.86413
3.03253,626.83093
3.03791,682.2218
3.04329,719.54821
3.04867,733.87951
3.05405,725.64636
3.05943,694.26306
3.06481,641.86584
3.07019,569.10144
3.07557,479.57165
3.08095,376.41052
3.08633,262.00842
3.09171,140.62439
3.09709,14.05285
3.10247,-114.50623
3.10785,-242.29505
3.11323,-367.84449
3.11862,-488.32654
3.124,-606.10083
3.12938,-716.73584
3.13476,-820.05652
3.14014,-915.62134
3.14552,-1004.57203
3.1509,-1085.38819
3.15628,-1160.72815
3.16166,-1229.46088
3.16704,-1292.1352
3.17242,-1349.67682
3.1778,-1401.74726
3.18318,-1449.10657
3.18856,-1492.15247
3.19394,-1531.59259
3.19932,-1567.30787
3.2047,-1599.87732
3.21008,-1629.6532
3.21546,-1656.58228
3.22084,-1681.11567
3.22622,-1703.69111
3.2316,-1724.14246
3.23698,-1742.83484
3.24236,-1759.7407
3.24774,-1774.9607
3.25312,-1788.89951
3.2585,-1801.61939
3.26388,-1813.07047
3.26927,-1823.2428
3.27465,-1832.41629
3.28003,-1840.54892
3.28541,-1847.9505
3.29079,-1854.41718
3.29617,-1859.99405
3.30155,-1864.7454
3.30693,-1868.84192
3.31231,-1872.236
3.31769,-1874.96332
3.32307,-1876.88709
3.32845,-1878.01343
3.33383,-1878.48023
3.33921,-1878.18778
3.34459,-1877.07975
3.34997,-1875.34275
3.35535,-1872.80265
3.36073,-1869.42951
3.36611,-1865.22855
3.37149,-1860.25409
3.37687,-1854.13227
3.38225,-1847.07557
3.38763,-1838.62015
3.39301,-1828.90561
3.39839,-1818.00422
3.40377,-1805.80671
3.40915,-1791.96778
3.41453,-1776.39637
3.41992,-1759.17258
3.4253,-1739.90445
3.43068,-1718.69898
3.43606,-1695.30652
3.44144,-1670.14191
3.44682,-1642.59333
3.4522,-1613.33252
3.45758,-1582.06965
3.46296,-1549.86622
3.46834,-1516.29749
3.47372,-1482.65125
3.4791,-1448.74024
3.48448,-1415.86115
3.48986,-1384.97681
3.49524,-1356.8841
3.50062,-1332.23603
3.506,-1312.61676
3.51138,-1297.88257
3.51676,-1289.6056
3.52214,-1287.66437
3.52752,-1292.82789
3.5329,-1303.6659
3.53828,-1321.16645
3.54366,-1343.65583
3.54904,-1371.25812
3.55442,-1402.13526
3.5598,-1436.14624
3.56518,-1471.41712
3.57057,-1507.94574
3.57595,-1544.25226
3.58133,-1580.14209
3.58671,-1614.65644
3.59209,-1647.87555
3.59747,-1679.11286
3.60285,-1708.30829
3.60823,-1735.4217
3.61361,-1760.52961
3.61899,-1783.42704
3.62437,-1804.64389
3.62975,-1823.91376
3.63513,-1841.56748
3.64051,-1857.84305
3.64589,-1872.534
3.65127,-1885.83731
3.65665,-1897.98667
3.66203,-1909.24726
3.66741,-1919.38758
3.67279,-1928.70157
3.67817,-1937.34678
3.68355,-1945.30719
3.68893,-1952.80722
3.69431,-1959.75318
3.69969,-1966.12604
3.70507,-1971.8498
3.71045,-1977.15702
3.71584,-1982.07657
3.72122,-1986.77121
3.7266,-1991.22722
3.73198,-1995.27933
3.73736,-1998.99089
3.74274,-2002.47222
3.74812,-2005.74443
3.7535,-2008.91233
3.75888,-2011.87804
3.76426,-2014.6662
3.76964,-2017.27593
3.77502,-2019.67025
3.7804,-2021.80999
3.78578,-2023.91417
3.79116,-2025.9255
3.79654,-2027.85144
3.80192,-2029.54021
3.8073,-2031.21409
3.81268,-2032.86327
3.81806,-2034.28202
3.82344,-2035.60064
3.82882,-2036.86417
3.8342,-2038.18096
3.83958,-2039.30861
3.84496,-2040.41016
3.85034,-2041.46026
3.85572,-2042.39612
3.8611,-2043.23546
3.86649,-2044.12079
3.87187,-2044.95203
3.87725,-2045.7508
3.88263,-2046.47939
3.88801,-2047.17754
3.89339,-2047.84568
3.89877,-2048.40068
3.90415,-2048.91018
3.90953,-2049.48743
3.91491,-2050.10083
3.92029,-2050.60502
3.92567,-2051.12952
3.93105,-2051.60115
3.93643,-2052.18786
3.94181,-2052.67215
3.94719,-2053.16393
3.95257,-2053.53223
3.95795,-2054.00966
3.96333,-2054.37732
3.96871,-2054.62302
3.97409,-2054.97954
3.97947,-2055.40265
3.98485,-2055.73668
3.99023,-2056.01621
3.99561,-2056.34903
4.00099,-2056.66336
4.00637,-2057.08147
4.01175,-2057.53164
4.01714,-2057.76107
4.02252,-2057.97094
4.0279,-2058.26253
4.03328,-2058.65035
4.03866,-2058.87893
4.04404,-2059.11681
4.04942,-2059.26708
4.0548,-2059.54148
4.06018,-2059.79882
4.06556,-2060.04943
4.07094,-2060.29393
4.07632,-2060.58251
4.0817,-2060.71048
4.08708,-2060.70377
4.09246,-2060.72721
4.09784,-2060.80463
4.10322,-2060.95957
4.1086,-2061.06444
4.11398,-2061.168
4.11936,-2061.27163
4.12474,-2061.4224
4.13012,-2061.52605
4.1355,-2061.54741
4.14088,-2061.61841
4.14626,-2061.77593
4.15164,-2061.81171
4.15702,-2061.7786
4.1624,-2061.69304
4.16779,-2061.71982
4.17317,-2061.75246
4.17855,-2061.83326
4.18393,-2061.8525
4.18931,-2061.82521
4.19469,-2061.84926
4.20007,-2061.86087
4.20545,-2061.84131
4.21083,-2061.78489
4.21621,-2061.66417
4.22159,-2061.67255
4.22697,-2061.76903
4.23235,-2061.76691
4.23773,-2061.65355
4.24311,-2061.45766
4.24849,-2061.37421
4.25387,-2061.33968
4.25925,-2061.27074
4.26463,-2061.16233
4.27001,-2061.0203
4.27539,-2060.92545
4.28077,-2060.71361
4.28615,-2060.57817
4.29153,-2060.54104
4.29691,-2060.45174
4.30229,-2060.24883
4.30767,-2060.00248
4.31306,-2059.79419
4.31844,-2059.63793
4.32382,-2059.53095
4.3292,-2059.3718
4.33458,-2059.20453
4.33996,-2058.91953
4.34534,-2058.70237
4.35072,-2058.45844
4.3561,-2058.26468
4.36148,-2058.01825
4.36686,-2057.78565
4.37224,-2057.42254
4.37762,-2057.01865
4.383,-2056.74358
4.38838,-2056.59525
4.39376,-2056.35904
4.39914,-2056.01081
4.40452,-2055.60741
4.4099,-2055.21047
4.41528,-2054.82386
4.42066,-2054.53782
4.42604,-2054.23842
4.43142,-2053.92461
4.4368,-2053.54734
4.44218,-2053.04244
4.44756,-2052.54027
4.45294,-2052.07477
4.45832,-2051.72806
4.46371,-2051.33648
4.46909,-2050.8982
4.47447,-2050.42067
4.47985,-2049.95295
4.48523,-2049.35177
4.49061,-2048.79999
4.49599,-2048.2428
4.50137,-2047.72979
4.50675,-2047.15899
4.51213,-2046.62015
4.51751,-2045.89708
4.52289,-2045.20432
4.52827,-2044.57473
4.53365,-2043.93784
4.53903,-2043.19878
4.54441,-2042.50832
4.54979,-2041.75728
4.55517,-2040.91944
4.56055,-2040.0385
4.56593,-2039.18065
4.57131,-2038.23114
4.57669,-2037.36591
4.58207,-2036.5234
4.58745,-2035.54389
4.59283,-2034.40754
4.59821,-2033.38176
4.60359,-2032.38817
4.60897,-2031.16962
4.61436,-2029.85346
4.61974,-2028.60802
4.62512,-2027.35112
4.6305,-2025.95145
4.63588,-2024.43927
4.64126,-2022.7807
4.64664,-2021.01065
4.65202,-2019.03756
4.6574,-2016.99419
4.66278,-2014.84653
4.66816,-2012.47963
4.67354,-2009.94219
4.67892,-2007.16619
4.6843,-2004.27294
4.68968,-2001.16977
4.69506,-1998.0725
4.70044,-1994.83423
4.70582,-1991.25
4.7112,-1987.27874
4.71658,-1982.98528
4.72196,-1978.32056
4.72734,-1973.16764
4.73272,-1967.68335
4.7381,-1961.76816
4.74348,-1955.4126
4.74886,-1948.43409
4.75424,-1940.91892
4.75962,-1932.46531
4.76501,-1923.24118
4.77039,-1913.31101
4.77577,-1902.70276
4.78115,-1891.25962
4.78653,-1878.7931
4.79191,-1865.06824
4.79729,-1850.35044
4.80267,-1834.28193
4.80805,-1816.83909
4.81343,-1797.94278
4.81881,-1777.58774
4.82419,-1755.11399
4.82957,-1731.03568
4.83495,-1704.84241
4.84033,-1676.67817
4.84571,-1646.1167
4.85109,-1613.68128
4.85647,-1578.36353
4.86185,-1540.83289
4.86723,-1500.78882
4.87261,-1457.99622
4.87799,-1412.75782
4.88337,-1365.14167
4.88875,-1315.14502
4.89413,-1263.12964
4.89951,-1209.44226
4.90489,-1153.99048
4.91028,-1097.87842
4.91566,-1041.03638
4.92104,-983.99183
4.92642,-927.98182
4.9318,-873.62964
4.93718,-821.28394
4.94256,-772.31458
4.94794,-727.23999
4.95332,-687.08374
4.9587,-652.55799
4.96408,-624.42054
4.96946,-603.22266
4.97484,-589.64649
4.98022,-584.0763
4.9856,-586.91712
4.99098,-597.60498
4.99636,-616.39991
5.00174,-642.29505
5.00712,-675.19629
5.0125,-713.95545
5.01788,-758.43079
5.02326,-806.69056
5.02864,-858.8722
5.03402,-913.16748
5.0394,-969.7323
5.04478,-1027.06165
5.05016,-1085.17615
5.05554,-1142.42981
5.06093,-1198.98853
5.06631,-1254.01178
5.07169,-1307.05915
5.07707,-1357.9289
5.08245,-1406.54261
5.08783,-1452.35669
5.09321,-1495.72156
5.09859,-1536.36365
5.10397,-1574.63428
5.10935,-1610.0904
5.11473,-1642.93915
5.12011,-1673.29895
5.12549,-1701.4549
5.13087,-1727.28055
5.13625,-1751.2887
5.14163,-1773.4711
5.14701,-1793.80933
5.15239,-1812.40513
5.15777,-1829.45112
5.16315,-1845.08814
5.16853,-1859.57584
5.17391,-1872.95816
5.17929,-1885.12314
5.18467,-1896.30103
5.19005,-1906.55265
5.19543,-1915.94465
5.20081,-1924.64374
5.20619,-1932.68818
5.21158,-1940.02042
5.21696,-1946.8306
5.22234,-1953.15226
5.22772,-1958.93006
5.2331,-1964.18552
5.23848,-1968.99436
5.24386,-1973.41608
5.24924,-1977.59137
5.25462,-1981.4505
5.26,-1984.88315
5.26538,-1988.07393
5.27076,-1991.07517
5.27614,-1993.88553
5.28152,-1996.46856
5.2869,-1998.74399
5.29228,-2000.94353
5.29766,-2002.85749
5.30304,-2004.60993
5.30842,-2006.13472
5.3138,-2007.67005
5.31918,-2009.13514
5.32456,-2010.36974
5.32994,-2011.41134
5.33532,-2012.37197
5.3407,-2013.20151
5.34608,-2013.95514
5.35146,-2014.70293
5.35684,-2015.39876
5.36223,-2016.09157
5.36761,-2016.53655
5.37299,-2017.07972
5.37837,-2017.39756
5.38375,-2017.77654
5.38913,-2017.95354
5.39451,-2018.11269
5.39989,-2018.13054
5.40527,-2018.12444
5.41065,-2017.99149
5.41603,-2017.91755
5.42141,-2017.88337
5.42679,-2017.9338
5.43217,-2017.87024
5.43755,-2017.66675
5.44293,-2017.38555
5.44831,-2016.96024
5.45369,-2016.51419
5.45907,-2015.97965
5.46445,-2015.47956
5.46983,-2014.8704
5.47521,-2014.27063
5.48059,-2013.48156
5.48597,-2012.65303
5.49135,-2011.68215
5.49673,-2010.70795
5.50211,-2009.55498
5.5075,-2008.28054
5.51288,-2006.81868
5.51826,-2005.33509
5.52364,-2003.79509
5.52902,-2002.18543
5.5344,-2000.33808
5.53978,-1998.30288
5.54516,-1996.10038
5.55054,-1993.72387
5.55592,-1991.1937
5.5613,-1988.34279
5.56668,-1985.37624
5.57206,-1982.04114
5.57744,-1978.47214
5.58282,-1974.59006
5.5882,-1970.42893
5.59358,-1965.86002
5.59896,-1960.98533
5.60434,-1955.62122
5.60972,-1949.77942
5.6151,-1943.3815
5.62048,-1936.55933
5.62586,-1929.22998
5.63124,-1921.11695
5.63662,-1912.25516
5.642,-1902.41199
5.64738,-1892.06284
5.65276,-1880.70408
5.65815,-1868.46778
5.66353,-1854.90714
5.66891,-1840.40528
5.67429,-1824.55353
5.67967,-1807.57254
5.68505,-1788.96573
5.69043,-1768.8078
5.69581,-1747.08359
5.70119,-1723.63501
5.70657,-1698.3064
5.71195,-1671.11072
5.71733,-1642.15479
5.72271,-1611.05664
5.72809,-1578.18317
5.73347,-1543.03296
5.73885,-1506.10395
5.74423,-1467.14747
5.74961,-1426.77552
5.75499,-1384.50055
5.76037,-1341.30658
5.76575,-1297.01984
5.77113,-1251.98493
5.77651,-1206.66016
5.78189,-1162.02198
5.78727,-1117.76795
5.79265,-1075.01856
5.79803,-1034.18567
5.80341,-995.97742
5.8088,-961.01075
5.81418,-930.13745
5.81956,-903.52356
5.82494,-881.87024
5.83032,-865.49878
5.8357,-855.08802
5.84108,-850.27539
5.84646,-851.71204
5.85184,-859.27845
5.85722,-872.95923
5.8626,-891.98304
5.86798,-916.375
5.87336,-944.69434
5.87874,-977.31702
5.88412,-1013.15271
5.8895,-1051.75745
5.89488,-1092.26648
5.90026,-1134.51709
5.90564,-1177.24195
5.91102,-1220.2295
5.9164,-1262.77814
5.92178,-1304.81287
5.92716,-1345.76038
5.93254,-1385.2555
5.93792,-1422.91852
5.9433,-1458.91669
5.94868,-1492.64997
5.95406,-1524.37128
5.95945,-1553.70746
5.96483,-1580.68653
5.97021,-1605.37207
5.97559,-1628.04828
5.98097,-1648.32007
5.98635,-1666.47651
5.99173,-1682.67371
5.99711,-1696.95612
6.00249,-1709.49671
6.00787,-1720.31318
6.01325,-1729.4983
6.01863,-1737.17026
6.02401,-1743.56714
6.02939,-1748.75342
6.03477,-1753.09684
6.04015,-1756.60129
6.04553,-1759.29776
6.05091,-1761.41068
6.05629,-1763.16452
6.06167,-1764.66007
6.06705,-1766.0831
6.07243,-1767.62546
6.07781,-1769.30329
6.08319,-1771.29136
6.08857,-1773.59659
6.09395,-1776.47016
6.09933,-1779.80652
6.10472,-1783.72269
6.1101,-1788.32669
6.11548,-1793.76105
6.12086,-1799.72956
6.12624,-1806.32099
6.13162,-1813.51276
6.137,-1821.24524
6.14238,-1829.38224
6.14776,-1837.88715
6.15314,-1846.52659
6.15852,-1855.53196
6.1639,-1864.73368
6.16928,-1873.95017
6.17466,-1883.18644
6.18004,-1892.38614
6.18542,-1901.37433
6.1908,-1910.21085
6.19618,-1918.78614
6.20156,-1926.99402
6.20694,-1934.92749
6.21232,-1942.54905
6.2177,-1949.91932
6.22308,-1956.90159
6.22846,-1963.55478
6.23384,-1969.76618
6.23922,-1975.7919
6.2446,-1981.42151
6.24998,-1986.81401
6.25537,-1991.77398
6.26075,-1996.4328
6.26613,-2000.85808
6.27151,-2005.03774
6.27689,-2008.81771
6.28227,-2012.37792
6.28765,-2015.86899
6.29303,-2019.08306
6.29841,-2022.03914
6.30379,-2024.77893
6.30917,-2027.41698
6.31455,-2029.94851
6.31993,-2032.27109
6.32531,-2034.43355
6.33069,-2036.4377
6.33607,-2038.2304
6.34145,-2039.98806
6.34683,-2041.68804
6.35221,-2043.35286
6.35759,-2044.81272
6.36297,-2046.18427
6.36835,-2047.46058
6.37373,-2048.68161
6.37911,-2049.85866
6.38449,-2050.91602
6.38987,-2051.88945
6.39525,-2052.75104
6.40063,-2053.66047
6.40602,-2054.61129
6.4114,-2055.55661
6.41678,-2056.39089
6.42216,-2057.08214
6.42754,-2057.81281
6.43292,-2058.48793
6.4383,-2059.02013
6.44368,-2059.48545
6.44906,-2060.16382
6.45444,-2060.83222
6.45982,-2061.3745
6.4652,-2061.73488
6.47058,-2062.13973
6.47596,-2062.63009
6.48134,-2063.06046
6.48672,-2063.4343
6.4921,-2063.82251
6.49748,-2064.21111
6.50286,-2064.56417
6.50824,-2064.88332
6.51362,-2065.09357
6.519,-2065.36896
6.52438,-2065.6386
6.52976,-2065.96824
6.53514,-2066.18155
6.54052,-2066.42302
6.5459,-2066.56806
6.55128,-2066.75328
6.55667,-2066.87709
6.56205,-2067.08445
6.56743,-2067.26285
6.57281,-2067.41159
6.57819,-2067.54146
6.58357,-2067.65805
6.58895,-2067.77347
6.59433,-2067.92032
6.59971,-2068.05521
6.60509,-2068.20421
6.61047,-2068.20087
6.61585,-2068.19851
6.62123,-2068.24558
6.62661,-2068.33545
6.63199,-2068.25896
6.63737,-2068.20133
6.64275,-2068.16385
6.64813,-2068.22165
6.65351,-2068.18615
6.65889,-2068.17223
6.66427,-2068.07207
6.66965,-2068.07509
6.67503,-2068.00354
6.68041,-2067.93674
6.68579,-2067.84237
6.69117,-2067.77474
6.69655,-2067.59652
6.70194,-2067.37809
6.70732,-2067.21943
6.7127,-2067.02753
6.71808,-2066.82076
6.72346,-2066.51325
6.72884,-2066.25266
6.73422,-2066.02463
6.7396,-2065.75518
6.74498,-2065.48537
6.75036,-2065.21936
6.75574,-2064.92583
6.76112,-2064.52446
6.7665,-2064.03432
6.77188,-2063.65905
6.77726,-2063.14534
6.78264,-2062.43775
6.78802,-2061.74123
6.7934,-2060.90659
6.79878,-2060.14536
6.80416,-2059.27634
6.80954,-2058.40285
6.81492,-2057.35772
6.8203,-2056.26323
6.82568,-2055.03095
6.83106,-2053.75434
6.83644,-2052.31267
6.84182,-2050.68625
6.8472,-2048.8544
6.85259,-2046.8505
6.85797,-2044.77895
6.86335,-2042.57236
6.86873,-2040.26578
6.87411,-2037.65142
6.87949,-2034.77755
6.88487,-2031.6026
6.89025,-2028.09301
6.89563,-2024.29396
6.90101,-2020.21712
6.90639,-2015.56998
6.91177,-2010.52138
6.91715,-2005.04911
6.92253,-1999.29491
6.92791,-1992.92618
6.93329,-1986.12803
6.93867,-1979.0727
6.94405,-1971.879
6.94943,-1964.30402
6.95481,-1956.19507
6.96019,-1947.85798
6.96557,-1939.22629
6.97095,-1930.39667
6.97633,-1921.43522
6.98171,-1912.42661
6.98709,-1903.34803
6.99247,-1894.39942
6.99785,-1885.66434
7.00324,-1877.37085
7.00862,-1869.48716
7.014,-1862.23743
7.01938,-1855.89844
7.02476,-1850.53653
7.03014,-1846.13059
7.03552,-1842.70942
7.0409,-1840.4235
7.04628,-1839.35975
7.05166,-1839.62485
7.05704,-1841.10352
7.06242,-1843.77204
7.0678,-1847.4379
7.07318,-1852.11033
7.07856,-1857.8187
7.08394,-1864.33078
7.08932,-1871.62641
7.0947,-1879.33713
7.10008,-1887.59659
7.10546,-1896.04743
7.11084,-1904.70942
7.11622,-1913.38944
7.1216,-1922.16404
7.12698,-1930.81519
7.13236,-1939.1709
7.13774,-1947.1597
7.14312,-1954.87046
7.1485,-1962.28281
7.15389,-1969.35782
7.15927,-1975.95578
7.16465,-1982.26139
7.17003,-1988.01128
7.17541,-1993.43959
7.18079,-1998.43944
7.18617,-2003.03214
7.19155,-2007.24347
7.19693,-2011.27008
7.20231,-2014.90723
7.20769,-2018.23374
7.21307,-2021.18554
7.21845,-2023.96737
7.22383,-2026.49506
7.22921,-2028.76726
7.23459,-2030.91256
7.23997,-2032.85027
7.24535,-2034.52189
7.25073,-2035.92307
7.25611,-2037.27428
7.26149,-2038.49334
7.26687,-2039.55613
7.27225,-2040.47895
7.27763,-2041.26291
7.28301,-2041.9916
7.28839,-2042.52149
7.29377,-2042.94861
7.29915,-2043.16419
7.30454,-2043.39864
7.30992,-2043.49604
7.3153,-2043.56316
7.32068,-2043.488
7.32606,-2043.34282
7.33144,-2043.04619
7.33682,-2042.69156
7.3422,-2042.24601
7.34758,-2041.72869
7.35296,-2041.1644
7.35834,-2040.59147
7.36372,-2039.95855
7.3691,-2039.0056
7.37448,-2037.89397
7.37986,-2036.78623
7.38524,-2035.7362
7.39062,-2034.48314
7.396,-2033.08049
7.40138,-2031.47774
7.40676,-2029.74173
7.41214,-2027.88163
7.41752,-2025.88068
7.4229,-2023.71856
7.42828,-2021.38392
7.43366,-2018.93245
7.43904,-2016.22924
7.44442,-2013.23313
7.44981,-2010.02771
7.45519,-2006.61232
7.46057,-2002.97083
7.46595,-1999.02796
7.47133,-1994.65833
7.47671,-1990.01252
7.48209,-1985.10596
7.48747,-1979.80555
7.49285,-1974.10813
7.49823,-1968.02961
7.50361,-1961.43631
7.50899,-1954.41639
7.51437,-1946.93439
7.51975,-1938.92862
7.52513,-1930.35978
7.53051,-1921.22297
7.53589,-1911.60361
7.54127,-1901.37528
7.54665,-1890.51609
7.55203,-1878.9314
7.55741,-1867.12207
7.56279,-1854.64411
7.56817,-1841.66575
7.57355,-1828.03739
7.57893,-1813.95188
7.58431,-1799.2963
7.58969,-1784.46338
7.59507,-1769.25605
7.60046,-1753.818
7.60584,-1738.24222
7.61122,-1722.78156
7.6166,-1707.23987
7.62198,-1691.94782
7.62736,-1676.93714
7.63274,-1662.4469
7.63812,-1648.52832
7.6435,-1635.22876
7.64888,-1622.88001
7.65426,-1611.41132
7.65964,-1601.29944
7.66502,-1592.4433
7.6704,-1585.30805
7.67578,-1579.58551
7.68116,-1574.91761
7.68654,-1571.59638
7.69192,-1569.56434
7.6973,-1568.83918
7.70268,-1569.39533
7.70806,-1571.20325
7.71344,-1574.08875
7.71882,-1577.93512
7.7242,-1582.73816
7.72958,-1588.1673
7.73496,-1594.01423
7.74034,-1600.05671
7.74572,-1606.46155
7.75111,-1613.01343
7.75649,-1619.4621
7.76187,-1625.7085
7.76725,-1631.72657
7.77263,-1637.38862
7.77801,-1642.49189
7.78339,-1646.95899
7.78877,-1650.88508
7.79415,-1654.25849
7.79953,-1657.0102
7.80491,-1659.24494
7.81029,-1661.03431
7.81567,-1662.3274
7.82105,-1663.24976
7.82643,-1663.82898
7.83181,-1664.35553
7.83719,-1664.74109
7.84257,-1665.19556
7.84795,-1665.82398
7.85333,-1666.61768
7.85871,-1667.92572
7.86409,-1669.72425
7.86947,-1672.07923
7.87485,-1675.10883
7.88023,-1679.03058
7.88561,-1683.80744
7.89099,-1689.40778
7.89637,-1695.86756
7.90176,-1703.16315
7.90714,-1711.2511
7.91252,-1720.06543
7.9179,-1729.46778
7.92328,-1739.52317
7.92866,-1750.15055
7.93404,-1761.24262
7.93942,-1772.66599
7.9448,-1784.37156
7.95018,-1796.14447
7.95556,-1808.14383
7.96094,-1820.06315
7.96632,-1831.76734
7.9717,-1843.28199
7.97708,-1854.6536
7.98246,-1865.73435
7.98784,-1876.5029
7.99322,-1886.89832
7.9986,-1896.90674
8.00398,-1906.52012
8.00936,-1915.62259
8.01474,-1924.28708
8.02012,-1932.54062
8.0255,-1940.34668
8.03088,-1947.65265
8.03626,-1954.58484
8.04164,-1961.01102
8.04703,-1966.98566
8.05241,-1972.60718
8.05779,-1977.92063
8.06317,-1982.98282
8.06855,-1987.64881
8.07393,-1991.90575
8.07931,-1995.98864
8.08469,-1999.77475
8.09007,-2003.36992
8.09545,-2006.63082
8.10083,-2009.56475
8.10621,-2012.32427
8.11159,-2014.91797
8.11697,-2017.35364
8.12235,-2019.51314
8.12773,-2021.62127
8.13311,-2023.44535
8.13849,-2025.19303
8.14387,-2026.81855
8.14925,-2028.32929
8.15463,-2029.75107
8.16001,-2031.01908
8.16539,-2032.18738
8.17077,-2033.20186
8.17615,-2034.17913
8.18153,-2035.1111
8.18691,-2035.90984
8.19229,-2036.67945
8.19768,-2037.33077
8.20306,-2037.93808
8.20844,-2038.4672
8.21382,-2038.94466
8.2192,-2039.35617
8.22458,-2039.64222
8.22996,-2039.86495
8.23534,-2040.06612
8.24072,-2040.30375
8.2461,-2040.44252
8.25148,-2040.50122
8.25686,-2040.45137
8.26224,-2040.41344
8.26762,-2040.2728
8.273,-2040.11367
8.27838,-2039.90038
8.28376,-2039.65276
8.28914,-2039.31005
8.29452,-2038.87633
8.2999,-2038.4538
8.30528,-2037.92287
8.31066,-2037.25745
8.31604,-2036.56136
8.32142,-2035.81498
8.3268,-2035.04726
8.33218,-2034.13227
8.33756,-2033.15143
8.34294,-2032.1539
8.34833,-2030.92537
8.35371,-2029.59569
8.35909,-2028.11202
8.36447,-2026.53437
8.36985,-2024.82502
8.37523,-2022.95491
8.38061,-2020.9554
8.38599,-2018.7734
8.39137,-2016.43758
8.39675,-2013.93267
8.40213,-2011.23772
8.40751,-2008.30217
8.41289,-2005.12255
8.41827,-2001.77495
8.42365,-1998.11817
8.42903,-1994.13408
8.43441,-1989.85039
8.43979,-1985.39335
8.44517,-1980.63535
8.45055,-1975.47211
8.45593,-1969.97113
8.46131,-1964.07581
8.46669,-1957.74848
8.47207,-1951.07148
8.47745,-1943.98945
8.48283,-1936.51255
8.48821,-1928.51392
8.49359,-1920.07502
8.49898,-1911.27884
8.50436,-1902.00443
8.50974,-1892.29538
8.51512,-1882.10199
8.5205,-1871.62696
8.52588,-1860.80112
8.53126,-1849.70295
8.53664,-1838.30848
8.54202,-1826.68702
8.5474,-1814.81556
8.55278,-1803.0203
8.55816,-1791.19333
8.56354,-1779.39527
8.56892,-1767.82557
8.5743,-1756.41523
8.57968,-1745.46064
8.58506,-1734.92521
8.59044,-1725.12281
8.59582,-1715.94373
8.6012,-1707.64667
8.60658,-1700.20856
8.61196,-1693.69672
8.61734,-1688.25251
8.62272,-1684.0149
8.6281,-1681.06769
8.63348,-1679.43494
8.63886,-1679.21991
8.64425,-1680.14154
8.64963,-1682.43006
8.65501,-1685.8028
8.66039,-1690.40674
8.66577,-1696.02698
8.67115,-1702.89185
8.67653,-1710.54834
8.68191,-1719.11774
8.68729,-1728.48029
8.69267,-1738.46882
8.69805,-1748.95847
8.70343,-1759.84504
8.70881,-1771.02027
8.71419,-1782.43409
8.71957,-1793.98414
8.72495,-1805.51685
8.73033,-1817.03247
8.73571,-1828.3505
8.74109,-1839.45908
8.74647,-1850.26004
8.75185,-1860.88144
8.75723,-1871.19696
8.76261,-1881.01456
8.76799,-1890.39273
8.77337,-1899.3812
8.77875,-1907.99094
8.78413,-1916.15314
8.78951,-1923.90751
8.7949,-1931.17868
8.80028,-1938.03174
8.80566,-1944.29364
8.81104,-1950.24921
8.81642,-1955.78379
8.8218,-1960.95383
8.82718,-1965.70212
8.83256,-1970.09391
8.83794,-1974.11133
8.84332,-1977.79874
8.8487,-1981.10578
8.85408,-1984.1543
8.85946,-1986.89362
8.86484,-1989.30391
8.87022,-1991.4354
8.8756,-1993.31636
8.88098,-1994.96509
8.88636,-1996.30426
8.89174,-1997.3667
8.89712,-1998.09716
8.9025,-1998.61147
8.90788,-1998.8698
8.91326,-1998.87145
8.91864,-1998.59986
8.92402,-1998.09958
8.9294,-1997.35177
8.93478,-1996.31438
8.94016,-1995.08089
8.94555,-1993.45307
8.95093,-1991.62987
8.95631,-1989.49451
8.96169,-1987.08149
8.96707,-1984.26815
8.97245,-1981.07019
8.97783,-1977.54923
8.98321,-1973.75702
8.98859,-1969.61939
8.99397,-1965.06934
8.99935,-1960.25113
9.00473,-1954.93375
9.01011,-1949.23465
9.01549,-1943.06128
9.02087,-1936.57734
9.02625,-1929.60077
9.03163,-1922.11078
9.03701,-1914.18995
9.04239,-1905.90433
9.04777,-1897.24125
9.05315,-1888.16544
9.05853,-1878.83106
9.06391,-1869.11942
9.06929,-1859.18314
9.07467,-1848.95746
9.08005,-1838.65415
9.08543,-1828.30896
9.09081,-1818.16736
9.0962,-1808.01734
9.10158,-1798.14228
9.10696,-1788.59589
9.11234,-1779.5781
9.11772,-1771.03321
9.1231,-1763.04612
9.12848,-1755.82093
9.13386,-1749.48108
9.13924,-1744.19458
9.14462,-1739.91117
9.15,-1736.70661
9.15538,-1734.53556
9.16076,-1733.63544
9.16614,-1733.96766
9.17152,-1735.58008
9.1769,-1738.4993
9.18228,-1742.42426
9.18766,-1747.44132
9.19304,-1753.41462
9.19842,-1760.43531
9.2038,-1768.17664
9.20918,-1776.80475
9.21456,-1785.86393
9.21994,-1795.52695
9.22532,-1805.4907
9.2307,-1815.9332
9.23608,-1826.41468
9.24147,-1837.18097
9.24685,-1847.66269
9.25223,-1858.14667
9.25761,-1868.48084
9.26299,-1878.71409
9.26837,-1888.76682
9.27375,-1898.54944
9.27913,-1908.08582
9.28451,-1917.18183
9.28989,-1926.02176
9.29527,-1934.29639
9.30065,-1942.23664
9.30603,-1949.79554
9.31141,-1957.07456
9.31679,-1963.87323
9.32217,-1970.30173
9.32755,-1976.31626
9.33293,-1982.04718
9.33831,-1987.38062
9.34369,-1992.4271
9.34907,-1997.18757
9.35445,-2001.61206
9.35983,-2005.69582
9.36521,-2009.47261
9.37059,-2013.05301
9.37597,-2016.41864
9.38135,-2019.63448
9.38673,-2022.63466
9.39212,-2025.37357
9.3975,-2027.93139
9.40288,-2030.3507
9.40826,-2032.59626
9.41364,-2034.66597
9.41902,-2036.65418
9.4244,-2038.46407
9.42978,-2040.12787
9.43516,-2041.64801
9.44054,-2043.15757
9.44592,-2044.55956
9.4513,-2045.91994
9.45668,-2047.08107
9.46206,-2048.09942
9.46744,-2049.08838
9.47282,-2050.02921
9.4782,-2051.04766
9.48358,-2051.90561
9.48896,-2052.64074
9.49434,-2053.38013
9.49972,-2054.12697
9.5051,-2054.77529
9.51048,-2055.36084
9.51586,-2055.92173
9.52124,-2056.44643
9.52662,-2056.91484
9.532,-2057.33191
9.53738,-2057.76452
9.54277,-2058.17368
9.54815,-2058.54377
9.55353,-2058.85646
9.55891,-2059.18964
9.56429,-2059.46677
9.56967,-2059.72956
9.57505,-2059.93801
9.58043,-2060.10257
9.58581,-2060.18918
9.59119,-2060.34348
9.59657,-2060.50899
9.60195,-2060.60573
9.60733,-2060.62514
9.61271,-2060.6178
9.61809,-2060.64414
9.62347,-2060.59615
9.62885,-2060.65393
9.63423,-2060.67373
9.63961,-2060.58686
9.64499,-2060.40021
9.65037,-2060.29175
9.65575,-2060.14673
9.66113,-2059.90322
9.66651,-2059.64013
9.67189,-2059.42609
9.67727,-2059.25922
9.68265,-2058.94751
9.68803,-2058.56507
9.69342,-2058.07268
9.6988,-2057.65328
9.70418,-2057.18946
9.70956,-2056.63134
9.71494,-2056.09862
9.72032,-2055.57309
9.7257,-2054.91733
9.73108,-2054.0803
9.73646,-2053.25168
9.74184,-2052.32044
9.74722,-2051.31318
9.7526,-2050.2145
9.75798,-2049.15232
9.76336,-2048.10346
9.76874,-2046.90175
9.77412,-2045.59436
9.7795,-2044.25554
9.78488,-2042.8189
9.79026,-2041.26934
9.79564,-2039.58478
9.80102,-2037.78037
9.8064,-2035.85679
9.81178,-2033.855
9.81716,-2031.70366
9.82254,-2029.50892
9.82792,-2027.16513
9.8333,-2024.75785
9.83869,-2022.25908
9.84407,-2019.66124
9.84945,-2016.93468
9.85483,-2014.02924
9.86021,-2011.05759
9.86559,-2008.04744
9.87097,-2005.04676
9.87635,-2001.91129
9.88173,-1998.72911
9.88711,-1995.42882
9.89249,-1992.21833
9.89787,-1988.99981
9.90325,-1985.83052
9.90863,-1982.70249
9.91401,-1979.7089
9.91939,-1976.69169
9.92477,-1973.82084
9.93015,-1971.08487
9.93553,-1968.53791
9.94091,-1966.18424
9.94629,-1964.09922
9.95167,-1962.29581
9.95705,-1960.63828
9.96243,-1959.26133
9.96781,-1958.09681
9.97319,-1957.27778
9.97857,-1956.76963
9.98395,-1956.59964
9.98934,-1956.71705
9.99472,-1957.06595
10.0001,-1957.71576
10.00548,-1958.6326
10.01086,-1959.84717
10.01624,-1961.22632
10.02162,-1962.89313
10.027,-1964.763
10.03238,-1966.68418
10.03776,-1968.76117
10.04314,-1970.93543
10.04852,-1973.21384
10.0539,-1975.52738
10.05928,-1977.89981
10.06466,-1980.18061
10.07004,-1982.48558
10.07542,-1984.7772
10.0808,-1987.04357
10.08618,-1989.11576
10.09156,-1991.0989
10.09694,-1993.0076
10.10232,-1994.87178
10.1077,-1996.62432
10.11308,-1998.17061
10.11846,-1999.53542
10.12384,-2000.80993
10.12922,-2001.94216
10.1346,-2002.86593
10.13999,-2003.70244
10.14537,-2004.41477
10.15075,-2004.9141
10.15613,-2005.12066
10.16151,-2005.08443
10.16689,-2004.8935
10.17227,-2004.53347
10.17765,-2003.91068
10.18303,-2003.08558
10.18841,-2002.18467
10.19379,-2000.97472
10.19917,-1999.60289
10.20455,-1997.93479
10.20993,-1996.05103
10.21531,-1993.83072
10.22069,-1991.35418
10.22607,-1988.69887
10.23145,-1985.76143
10.23683,-1982.59148
10.24221,-1979.14289
10.24759,-1975.37558
10.25297,-1971.28107
10.25835,-1966.9524
10.26373,-1962.20697
10.26911,-1957.13071
10.27449,-1951.77741
10.27987,-1946.17536
10.28525,-1940.15882
10.29064,-1933.81174
10.29602,-1927.11014
10.3014,-1920.22699
10.30678,-1913.02417
10.31216,-1905.44626
10.31754,-1897.53992
10.32292,-1889.37281
10.3283,-1881.07227
10.33368,-1872.47034
10.33906,-1863.72696
10.34444,-1854.8068
10.34982,-1845.89637
10.3552,-1836.89203
10.36058,-1827.87607
10.36596,-1818.81116
10.37134,-1809.82712
10.37672,-1801.08234
10.3821,-1792.64411
10.38748,-1784.51465
10.39286,-1776.66861
10.39824,-1769.16422
10.40362,-1762.13007
10.409,-1755.64356
10.41438,-1749.65754
10.41976,-1744.30283
10.42514,-1739.65809
10.43052,-1735.71491
10.43591,-1732.39176
10.44129,-1729.77106
10.44667,-1727.87586
10.45205,-1726.75324
10.45743,-1726.25834
10.46281,-1726.38657
10.46819,-1727.04487
10.47357,-1728.38434
10.47895,-1730.22477
10.48433,-1732.53901
10.48971,-1735.27875
10.49509,-1738.56
10.50047,-1742.04346
10.50585,-1745.8693
10.51123,-1750.00135
10.51661,-1754.3844
10.52199,-1758.83033
10.52737,-1763.48859
10.53275,-1768.36844
10.53813,-1773.4068
10.54351,-1778.59818
10.54889,-1783.86835
10.55427,-1789.39283
10.55965,-1794.94678
10.56503,-1800.44306
10.57041,-1806.00446
10.57579,-1811.81138
10.58117,-1817.77201
10.58656,-1823.8032
10.59194,-1829.90119
10.59732,-1836.05658
10.6027,-1842.41785
10.60808,-1848.90317
10.61346,-1855.43912
10.61884,-1861.97348
10.62422,-1868.57111
10.6296,-1875.25568
10.63498,-1881.96424
10.64036,-1888.56726
10.64574,-1895.23569
10.65112,-1901.83521
10.6565,-1908.31546
10.66188,-1914.57392
10.66726,-1920.77918
10.67264,-1926.89975
10.67802,-1932.93488
10.6834,-1938.73752
10.68878,-1944.40671
10.69416,-1949.90049
10.69954,-1955.21131
10.70492,-1960.22095
10.7103,-1965.1077
10.71568,-1969.85971
10.72106,-1974.40851
10.72644,-1978.66388
10.73182,-1982.73163
10.73721,-1986.6026
10.74259,-1990.34322
10.74797,-1993.82596
10.75335,-1997.19642
10.75873,-2000.34032
10.76411,-2003.38399
10.76949,-2006.13996
10.77487,-2008.71843
10.78025,-2011.1216
10.78563,-2013.49701
10.79101,-2015.69989
10.79639,-2017.68865
10.80177,-2019.57305
10.80715,-2021.30095
10.81253,-2022.95227
10.81791,-2024.41251
10.82329,-2025.7966
10.82867,-2027.05303
10.83405,-2028.27298
10.83943,-2029.24746
10.84481,-2030.2024
10.85019,-2031.07535
10.85557,-2031.8499
10.86095,-2032.52436
10.86633,-2033.07662
10.87171,-2033.57894
10.87709,-2033.89795
10.88247,-2034.19777
10.88786,-2034.43845
10.89324,-2034.5606
10.89862,-2034.586
10.904,-2034.34815
10.90938,-2034.1735
10.91476,-2033.83698
10.92014,-2033.39136
10.92552,-2032.79462
10.9309,-2032.15632
10.93628,-2031.36972
10.94166,-2030.57584
10.94704,-2029.63923
10.95242,-2028.59209
10.9578,-2027.3528
10.96318,-2026.00263
10.96856,-2024.48403
10.97394,-2022.80791
10.97932,-2020.97471
10.9847,-2018.95015
10.99008,-2016.82373
10.99546,-2014.52622
11.00084,-2012.08797
11.00622,-2009.46087
11.0116,-2006.70833
11.01698,-2003.75805
11.02236,-2000.65778
11.02774,-1997.3823
11.03313,-1993.90555
11.03851,-1990.27424
11.04389,-1986.52146
11.04927,-1982.71956
11.05465,-1978.85068
11.06003,-1974.84394
11.06541,-1970.66529
11.07079,-1966.41071
11.07617,-1962.18284
11.08155,-1957.93677
11.08693,-1953.7706
11.09231,-1949.66834
11.09769,-1945.65525
11.10307,-1941.75055
11.10845,-1938.12595
11.11383,-1934.66529
11.11921,-1931.41217
11.12459,-1928.50525
11.12997,-1925.96351
11.13535,-1923.79972
11.14073,-1921.90332
11.14611,-1920.45789
11.15149,-1919.33439
11.15687,-1918.69236
11.16225,-1918.48993
11.16763,-1918.86399
11.17301,-1919.56553
11.17839,-1920.72504
11.18378,-1922.22605
11.18916,-1924.21637
11.19454,-1926.5737
11.19992,-1929.29123
11.2053,-1932.2529
11.21068,-1935.41779
11.21606,-1938.82856
11.22144,-1942.36045
11.22682,-1946.06147
11.2322,-1949.88926
11.23758,-1953.88681
11.24296,-1957.88611
11.24834,-1961.9437
11.25372,-1965.86655
11.2591,-1969.73334
11.26448,-1973.62449
11.26986,-1977.41044
11.27524,-1981.04001
11.28062,-1984.39983
11.286,-1987.75634
11.29138,-1990.8987
11.29676,-1993.95777
11.30214,-1996.75719
11.30752,-1999.41106
11.3129,-2001.85645
11.31828,-2004.12935
11.32366,-2006.21151
11.32904,-2008.11614
11.33443,-2009.78661
11.33981,-2011.22826
11.34519,-2012.50209
11.35057,-2013.55375
11.35595,-2014.45482
11.36133,-2015.25528
11.36671,-2015.89322
11.37209,-2016.39072
11.37747,-2016.56263
11.38285,-2016.54032
11.38823,-2016.32732
11.39361,-2016.10553
11.39899,-2015.60563
11.40437,-2015.08124
11.40975,-2014.42293
11.41513,-2013.29696
11.42051,-2012.06508
11.42589,-2010.74776
11.43127,-2009.35379
11.43665,-2007.75815
11.44203,-2006.0635
11.44741,-2004.15186
11.45279,-2002.22574
11.45817,-2000.06871
11.46355,-1997.89861
11.46893,-1995.59948
11.47431,-1993.26654
11.47969,-1990.78255
11.48508,-1988.28112
11.49046,-1985.6128
11.49584,-1982.99718
11.50122,-1980.33533
11.5066,-1977.66285
11.51198,-1975.01053
11.51736,-1972.42969
11.52274,-1969.91724
11.52812,-1967.34223
11.5335,-1964.78766
11.53888,-1962.37662
11.54426,-1960.05695
11.54964,-1957.79401
11.55502,-1955.66336
11.5604,-1953.74485
11.56578,-1951.95502
11.57116,-1950.23414
11.57654,-1948.66987
11.58192,-1947.25321
11.5873,-1945.92032
11.59268,-1944.74604
11.59806,-1943.7565
11.60344,-1943.01221
11.60882,-1942.45603
11.6142,-1942.0401
11.61958,-1941.68619
11.62496,-1941.33966
11.63035,-1941.21183
11.63573,-1941.28705
11.64111,-1941.5824
11.64649,-1942.00208
11.65187,-1942.51755
11.65725,-1943.17554
11.66263,-1943.96418
11.66801,-1944.92737
11.67339,-1945.95563
11.67877,-1947.17493
11.68415,-1948.48755
11.68953,-1950.0196
11.69491,-1951.64829
11.70029,-1953.43305
11.70567,-1955.30018
11.71105,-1957.45536
11.71643,-1959.66349
11.72181,-1961.98749
11.72719,-1964.40519
11.73257,-1967.0055
11.73795,-1969.70108
11.74333,-1972.51215
11.74871,-1975.36753
11.75409,-1978.24573
11.75947,-1981.22931
11.76485,-1984.266
11.77023,-1987.29908
11.77561,-1990.31089
11.781,-1993.28669
11.78638,-1996.29702
11.79176,-1999.28743
11.79714,-2002.26792
11.80252,-2005.18258
11.8079,-2008.05669
11.81328,-2010.8873
11.81866,-2013.61559
11.82404,-2016.25914
11.82942,-2018.77691
11.8348,-2021.195
11.84018,-2023.55816
11.84556,-2025.90212
11.85094,-2028.1402
11.85632,-2030.22379
11.8617,-2032.238
11.86708,-2034.14051
11.87246,-2035.94132
11.87784,-2037.66196
11.88322,-2039.31304
11.8886,-2040.75751
11.89398,-2042.17716
11.89936,-2043.50722
11.90474,-2044.83428
11.91012,-2046.04036
11.9155,-2047.18607
11.92088,-2048.19564
11.92626,-2049.10418
11.93165,-2050.01897
11.93703,-2050.81142
11.94241,-2051.53132
11.94779,-2052.16333
11.95317,-2052.76775
11.95855,-2053.2947
11.96393,-2053.85201
11.96931,-2054.34583
11.97469,-2054.82447
11.98007,-2055.18892
11.98545,-2055.48104
11.99083,-2055.73136
11.99621,-2055.9582
12.00159,-2056.11722
12.00697,-2056.21193
12.01235,-2056.2452
12.01773,-2056.24575
12.02311,-2056.1722
12.02849,-2056.16053
12.03387,-2056.16875
12.03925,-2056.07846
12.04463,-2055.78022
12.05001,-2055.4422
12.05539,-2055.15038
12.06077,-2054.90316
12.06615,-2054.55924
12.07153,-2054.21404
12.07691,-2053.75049
12.0823,-2053.32125
12.08768,-2052.81397
12.09306,-2052.28742
12.09844,-2051.74028
12.10382,-2051.20797
12.1092,-2050.61782
12.11458,-2049.96946
12.11996,-2049.29192
12.12534,-2048.62365
12.13072,-2047.88926
12.1361,-2047.19161
12.14148,-2046.58405
12.14686,-2045.93567
12.15224,-2045.26682
12.15762,-2044.48539
12.163,-2043.73418
12.16838,-2043.03792
12.17376,-2042.38086
12.17914,-2041.64492
12.18452,-2040.99624
12.1899,-2040.40671
12.19528,-2039.94895
12.20066,-2039.37793
12.20604,-2038.95714
12.21142,-2038.43703
12.2168,-2038.02684
12.22218,-2037.52898
12.22757,-2037.19533
12.23295,-2036.87619
12.23833,-2036.67685
12.24371,-2036.51523
12.24909,-2036.45455
12.25447,-2036.40996
12.25985,-2036.37221
