theta (500C),intensity (500C)
0.2135,-1608.67419
0.21892,-1604.99548
0.22435,-1602.88565
0.22978,-1599.35658
0.2352,-1599.62799
0.24063,-1597.41727
0.24605,-1597.61551
0.25148,-1595.61911
0.25691,-1595.07098
0.26233,-1592.99966
0.26776,-1591.76162
0.27318,-1590.21854
0.27861,-1589.30716
0.28404,-1587.6226
0.28946,-1586.65901
0.29489,-1585.63364
0.30031,-1585.11449
0.30574,-1584.26538
0.31117,-1583.29964
0.31659,-1582.11291
0.32202,-1580.68665
0.32744,-1579.87384
0.33287,-1578.61845
0.3383,-1578.40703
0.34372,-1577.99796
0.34915,-1577.45678
0.35458,-1576.0295
0.36,-1575.28999
0.36543,-1574.077
0.37085,-1573.20006
0.37628,-1571.75711
0.38171,-1569.93275
0.38713,-1566.78571
0.39256,-1562.03082
0.39798,-1553.93178
0.40341,-1539.1014
0.40884,-1522.39285
0.41426,-1495.70538
0.41969,-1466.27161
0.42511,-1430.6591
0.43054,-1398.24729
0.43597,-1358.76177
0.44139,-1325.26574
0.44682,-1284.66253
0.45224,-1263.62533
0.45767,-1237.03423
0.4631,-1219.19659
0.46852,-1188.19283
0.47395,-1175.74447
0.47937,-1162.49044
0.4848,-1158.47137
0.49023,-1152.36846
0.49565,-1152.95144
0.50108,-1155.23101
0.5065,-1159.06646
0.51193,-1163.66799
0.51736,-1171.62612
0.52278,-1182.98415
0.52821,-1190.21395
0.53363,-1199.63152
0.53906,-1203.63277
0.54449,-1214.69723
0.54991,-1219.4212
0.55534,-1230.19143
0.56076,-1233.32949
0.56619,-1243.07656
0.57162,-1246.16119
0.57704,-1254.14837
0.58247,-1257.85607
0.58789,-1264.4096
0.59332,-1268.32735
0.59875,-1274.5715
0.60417,-1278.32327
0.6096,-1283.60812
0.61502,-1286.49038
0.62045,-1292.12847
0.62588,-1298.01263
0.6313,-1304.82345
0.63673,-1310.25195
0.64215,-1316.7702
0.64758,-1322.23837
0.65301,-1327.96832
0.65843,-1333.88808
0.66386,-1340.17812
0.66928,-1346.39184
0.67471,-1352.21169
0.68014,-1358.06158
0.68556,-1363.49091
0.69099,-1368.97024
0.69641,-1374.06472
0.70184,-1378.56742
0.70727,-1382.78048
0.71269,-1387.0409
0.71812,-1391.22865
0.72355,-1395.13532
0.72897,-1399.01456
0.7344,-1402.64314
0.73982,-1406.58079
0.74525,-1410.17361
0.75068,-1413.36901
0.7561,-1416.42304
0.76153,-1419.71954
0.76695,-1422.78365
0.77238,-1425.73075
0.77781,-1428.58077
0.78323,-1431.27396
0.78866,-1433.71334
0.79408,-1436.30544
0.79951,-1438.75597
0.80494,-1441.40624
0.81036,-1443.7472
0.81579,-1445.79235
0.82121,-1447.57562
0.82664,-1449.75596
0.83207,-1452.01681
0.83749,-1453.81515
0.84292,-1455.52108
0.84834,-1457.12713
0.85377,-1458.76661
0.8592,-1460.42873
0.86462,-1462.18262
0.87005,-1463.84641
0.87547,-1465.37357
0.8809,-1466.8359
0.88633,-1468.25916
0.89175,-1469.5505
0.89718,-1471.02636
0.9026,-1472.56709
0.90803,-1474.11341
0.91346,-1475.21555
0.91888,-1476.37168
0.92431,-1477.8119
0.92973,-1479.13058
0.93516,-1480.10139
0.94059,-1481.21571
0.94601,-1482.05938
0.95144,-1483.06689
0.95686,-1483.96593
0.96229,-1485.01914
0.96772,-1485.83189
0.97314,-1486.70214
0.97857,-1487.4103
0.98399,-1488.09248
0.98942,-1489.00805
0.99485,-1489.86878
1.00027,-1490.87965
1.0057,-1491.68938
1.01112,-1492.31423
1.01655,-1493.3038
1.02198,-1494.09876
1.0274,-1494.83939
1.03283,-1495.18515
1.03825,-1495.55458
1.04368,-1495.93572
1.04911,-1496.36346
1.05453,-1496.9118
1.05996,-1497.41878
1.06539,-1498.27504
1.07081,-1499.21652
1.07624,-1499.835
1.08166,-1500.51264
1.08709,-1501.12724
1.09252,-1501.78005
1.09794,-1502.4657
1.10337,-1502.96158
1.10879,-1503.38557
1.11422,-1503.76494
1.11965,-1504.50941
1.12507,-1505.1303
1.1305,-1505.58749
1.13592,-1506.02815
1.14135,-1506.33364
1.14678,-1506.66398
1.1522,-1507.1987
1.15763,-1507.83357
1.16305,-1508.40726
1.16848,-1508.7676
1.17391,-1509.14655
1.17933,-1509.37083
1.18476,-1509.64289
1.19018,-1509.85486
1.19561,-1510.06874
1.20104,-1510.41869
1.20646,-1510.57914
1.21189,-1510.81499
1.21731,-1510.94164
1.22274,-1511.39131
1.22817,-1511.5352
1.23359,-1511.82793
1.23902,-1512.26442
1.24444,-1512.65552
1.24987,-1512.81081
1.2553,-1513.09651
1.26072,-1513.39104
1.26615,-1513.70538
1.27157,-1513.97349
1.277,-1514.56339
1.28243,-1515.01897
1.28785,-1515.14825
1.29328,-1515.35744
1.2987,-1515.66485
1.30413,-1516.01928
1.30956,-1515.98566
1.31498,-1516.08892
1.32041,-1516.1438
1.32583,-1516.54729
1.33126,-1516.85877
1.33669,-1517.21513
1.34211,-1517.46822
1.34754,-1517.71084
1.35296,-1517.67674
1.35839,-1517.86703
1.36382,-1518.14378
1.36924,-1518.54591
1.37467,-1518.83975
1.38009,-1518.98012
1.38552,-1519.18465
1.39095,-1519.3076
1.39637,-1519.40949
1.4018,-1519.54382
1.40722,-1519.75959
1.41265,-1519.7853
1.41808,-1519.90749
1.4235,-1520.1772
1.42893,-1520.44636
1.43436,-1520.45677
1.43978,-1520.45071
1.44521,-1520.41789
1.45063,-1520.63191
1.45606,-1520.9153
1.46149,-1521.18808
1.46691,-1521.40939
1.47234,-1521.40209
1.47776,-1521.46946
1.48319,-1521.5802
1.48862,-1521.74094
1.49404,-1521.74907
1.49947,-1521.86088
1.50489,-1522.08189
1.51032,-1522.27557
1.51575,-1522.40233
1.52117,-1522.41839
1.5266,-1522.28778
1.53202,-1522.3429
1.53745,-1522.59102
1.54288,-1522.77331
1.5483,-1522.91986
1.55373,-1522.90378
1.55915,-1523.075
1.56458,-1523.21158
1.57001,-1523.27878
1.57543,-1523.32873
1.58086,-1523.32841
1.58628,-1523.44099
1.59171,-1523.57035
1.59714,-1523.74454
1.60256,-1523.76044
1.60799,-1523.85167
1.61341,-1523.94854
1.61884,-1523.98798
1.62427,-1524.03565
1.62969,-1524.03239
1.63512,-1524.10242
1.64054,-1524.17203
1.64597,-1524.2597
1.6514,-1524.28152
1.65682,-1524.3269
1.66225,-1524.39177
1.66767,-1524.42454
1.6731,-1524.44026
1.67853,-1524.38528
1.68395,-1524.49465
1.68938,-1524.66261
1.6948,-1524.77428
1.70023,-1524.80469
1.70566,-1524.79515
1.71108,-1524.86108
1.71651,-1524.96822
1.72193,-1525.18223
1.72736,-1525.17122
1.73279,-1525.32375
1.73821,-1525.47076
1.74364,-1525.50371
1.74906,-1525.34269
1.75449,-1525.33828
1.75992,-1525.46635
1.76534,-1525.57426
1.77077,-1525.45193
1.77619,-1525.51003
1.78162,-1525.68398
1.78705,-1525.84051
1.79247,-1525.91616
1.7979,-1525.7561
1.80333,-1525.662
1.80875,-1525.61064
1.81418,-1525.54466
1.8196,-1525.47784
1.82503,-1525.55428
1.83046,-1525.62734
1.83588,-1525.62563
1.84131,-1525.46272
1.84673,-1525.62377
1.85216,-1525.73553
1.85759,-1525.83592
1.86301,-1525.68895
1.86844,-1525.61543
1.87386,-1525.5301
1.87929,-1525.49911
1.88472,-1525.39093
1.89014,-1525.58868
1.89557,-1525.66757
1.90099,-1525.66071
1.90642,-1525.58657
1.91185,-1525.60104
1.91727,-1525.66006
1.9227,-1525.64272
1.92812,-1525.65844
1.93355,-1525.48263
1.93898,-1525.51725
1.9444,-1525.5041
1.94983,-1525.56931
1.95525,-1525.56918
1.96068,-1525.64876
1.96611,-1525.4731
1.97153,-1525.33293
1.97696,-1525.34531
1.98238,-1525.37439
1.98781,-1525.27023
1.99324,-1525.06556
1.99866,-1525.00431
2.00409,-1524.90251
2.00951,-1524.86872
2.01494,-1524.87529
2.02037,-1524.83336
2.02579,-1524.76786
2.03122,-1524.74181
2.03664,-1524.71127
2.04207,-1524.80869
2.0475,-1524.95098
2.05292,-1524.92777
2.05835,-1524.72122
2.06377,-1524.72778
2.0692,-1524.74988
2.07463,-1524.81943
2.08005,-1524.94099
2.08548,-1525.0144
2.0909,-1525.1518
2.09633,-1525.12497
2.10176,-1525.1714
2.10718,-1525.05985
2.11261,-1525.15855
2.11803,-1525.10648
2.12346,-1525.12595
2.12889,-1525.07006
2.13431,-1525.00567
2.13974,-1525.00723
2.14516,-1525.161
2.15059,-1525.25863
2.15602,-1525.28318
2.16144,-1525.24471
2.16687,-1525.18253
2.1723,-1525.17106
2.17772,-1525.10269
2.18315,-1525.02216
2.18857,-1525.07074
2.194,-1525.20124
2.19943,-1525.04629
2.20485,-1524.95185
2.21028,-1524.8289
2.2157,-1525.02496
2.22113,-1525.03714
2.22656,-1525.03965
2.23198,-1524.8057
2.23741,-1524.62473
2.24283,-1524.44853
2.24826,-1524.39779
2.25369,-1524.47108
2.25911,-1524.42212
2.26454,-1524.34628
2.26996,-1524.25066
2.27539,-1524.27808
2.28082,-1524.14641
2.28624,-1523.94058
2.29167,-1523.83847
2.29709,-1523.88686
2.30252,-1523.81483
2.30795,-1523.70833
2.31337,-1523.58678
2.3188,-1523.54787
2.32422,-1523.4734
2.32965,-1523.34718
2.33508,-1523.24678
2.3405,-1523.23103
2.34593,-1523.22508
2.35135,-1523.0667
2.35678,-1522.95763
2.36221,-1522.84516
2.36763,-1522.61227
2.37306,-1522.43399
2.37848,-1522.28935
2.38391,-1522.10539
2.38934,-1522.01945
2.39476,-1521.88264
2.40019,-1521.67239
2.40561,-1521.36779
2.41104,-1521.21139
2.41647,-1520.99778
2.42189,-1520.92497
2.42732,-1520.65327
2.43274,-1520.31537
2.43817,-1520.11183
2.4436,-1519.96783
2.44902,-1519.75123
2.45445,-1519.41757
2.45987,-1519.16859
2.4653,-1518.87856
2.47073,-1518.52371
2.47615,-1518.18514
2.48158,-1517.96101
2.487,-1517.61472
2.49243,-1517.23543
2.49786,-1516.79709
2.50328,-1516.48231
2.50871,-1516.19995
2.51414,-1515.87766
2.51956,-1515.48724
2.52499,-1515.05727
2.53041,-1514.68262
2.53584,-1514.31541
2.54127,-1513.88108
2.54669,-1513.3719
2.55212,-1512.81979
2.55754,-1512.27941
2.56297,-1511.73874
2.5684,-1511.27018
2.57382,-1510.87388
2.57925,-1510.31637
2.58467,-1509.71922
2.5901,-1509.08036
2.59553,-1508.48349
2.60095,-1507.87124
2.60638,-1507.20607
2.6118,-1506.32924
2.61723,-1505.63251
2.62266,-1504.90551
2.62808,-1504.2691
2.63351,-1503.4344
2.63893,-1502.63618
2.64436,-1501.79174
2.64979,-1500.98519
2.65521,-1500.13061
2.66064,-1499.08434
2.66606,-1498.10414
2.67149,-1496.99355
2.67692,-1495.87157
2.68234,-1494.60292
2.68777,-1493.31706
2.69319,-1492.02792
2.69862,-1490.67272
2.70405,-1489.16758
2.70947,-1487.63319
2.7149,-1486.11481
2.72032,-1484.51675
2.72575,-1482.71546
2.73118,-1480.87988
2.7366,-1478.9683
2.74203,-1476.92013
2.74745,-1474.75518
2.75288,-1472.33276
2.75831,-1469.884
2.76373,-1467.23289
2.76916,-1464.2326
2.77458,-1461.06301
2.78001,-1457.79717
2.78544,-1454.32046
2.79086,-1450.6789
2.79629,-1446.63262
2.80171,-1442.28825
2.80714,-1437.43139
2.81257,-1432.28271
2.81799,-1426.78396
2.82342,-1420.92779
2.82884,-1414.47948
2.83427,-1407.77991
2.8397,-1400.34721
2.84512,-1392.40771
2.85055,-1383.50446
2.85597,-1373.96832
2.8614,-1363.39681
2.86683,-1352.18633
2.87225,-1339.7066
2.87768,-1326.15069
2.88311,-1311.16335
2.88853,-1294.73129
2.89396,-1276.99441
2.89938,-1257.47054
2.90481,-1236.26281
2.91024,-1212.05636
2.91566,-1186.37899
2.92109,-1157.22585
2.92651,-1125.91579
2.93194,-1091.43249
2.93737,-1054.5924
2.94279,-1012.83324
2.94822,-969.15978
2.95364,-920.67663
2.95907,-869.77734
2.9645,-814.32067
2.96992,-756.04125
2.97535,-694.79375
2.98077,-632.15478
2.9862,-567.22521
2.99163,-501.79418
2.99705,-436.45654
3.00248,-371.4154
3.0079,-308.63683
3.01333,-250.60143
3.01876,-196.71545
3.02418,-150.82201
3.02961,-110.2069
3.03503,-78.86437
3.04046,-55.53149
3.04589,-43.17089
3.05131,-38.20873
3.05674,-46.35741
3.06216,-61.82482
3.06759,-89.34655
3.07302,-123.5902
3.07844,-166.73913
3.08387,-216.59728
3.08929,-273.03564
3.09472,-333.44982
3.10015,-396.93346
3.10557,-463.083
3.111,-528.96508
3.11642,-596.22674
3.12185,-661.68108
3.12728,-725.45043
3.1327,-786.87066
3.13813,-843.71441
3.14355,-896.55071
3.14898,-947.096
3.15441,-993.54961
3.15983,-1036.37682
3.16526,-1075.88012
3.17068,-1111.84606
3.17611,-1145.22039
3.18154,-1175.93551
3.18696,-1203.15505
3.19239,-1226.94674
3.19781,-1248.29223
3.20324,-1268.30416
3.20867,-1286.48104
3.21409,-1302.60708
3.21952,-1317.21471
3.22494,-1330.3886
3.23037,-1342.7304
3.2358,-1353.74233
3.24122,-1363.60244
3.24665,-1372.74689
3.25208,-1380.85041
3.2575,-1388.23006
3.26293,-1394.77166
3.26835,-1400.7486
3.27378,-1405.97938
3.27921,-1410.64626
3.28463,-1414.97384
3.29006,-1418.77001
3.29548,-1421.97166
3.30091,-1424.46256
3.30634,-1426.46639
3.31176,-1428.19537
3.31719,-1429.66105
3.32261,-1430.62432
3.32804,-1431.13361
3.33347,-1431.10333
3.33889,-1430.82822
3.34432,-1430.07281
3.34974,-1428.95531
3.35517,-1427.28263
3.3606,-1425.28695
3.36602,-1422.53948
3.37145,-1419.36134
3.37687,-1415.40276
3.3823,-1410.81847
3.38773,-1405.38427
3.39315,-1399.6303
3.39858,-1392.8065
3.404,-1385.13142
3.40943,-1376.46427
3.41486,-1367.02529
3.42028,-1356.36993
3.42571,-1344.71294
3.43113,-1332.22369
3.43656,-1318.78704
3.44199,-1304.50268
3.44741,-1288.73067
3.45284,-1272.36364
3.45826,-1255.68948
3.46369,-1238.81835
3.46912,-1221.90725
3.47454,-1205.40569
3.47997,-1189.3991
3.48539,-1174.34863
3.49082,-1160.63735
3.49625,-1148.19512
3.50167,-1138.0685
3.5071,-1130.11852
3.51252,-1124.87338
3.51795,-1122.02581
3.52338,-1122.08529
3.5288,-1124.42715
3.53423,-1129.68798
3.53965,-1137.52245
3.54508,-1147.58562
3.55051,-1160.14709
3.55593,-1174.19772
3.56136,-1190.01391
3.56678,-1206.71087
3.57221,-1224.46136
3.57764,-1242.30651
3.58306,-1260.50536
3.58849,-1278.22872
3.59392,-1295.84582
3.59934,-1312.76501
3.60477,-1328.99184
3.61019,-1344.45559
3.61562,-1358.7665
3.62105,-1372.13213
3.62647,-1384.33463
3.6319,-1395.8895
3.63732,-1406.15557
3.64275,-1415.47157
3.64818,-1423.95307
3.6536,-1431.894
3.65903,-1439.04446
3.66445,-1445.63291
3.66988,-1451.6175
3.67531,-1457.07082
3.68073,-1462.06176
3.68616,-1466.49177
3.69158,-1470.6681
3.69701,-1474.52096
3.70244,-1478.12333
3.70786,-1481.30157
3.71329,-1484.32688
3.71871,-1487.06269
3.72414,-1489.60252
3.72957,-1491.95033
3.73499,-1494.14359
3.74042,-1496.1483
3.74584,-1497.99587
3.75127,-1499.75387
3.7567,-1501.30744
3.76212,-1502.83596
3.76755,-1504.27078
3.77297,-1505.72236
3.7784,-1507.01436
3.78383,-1508.19878
3.78925,-1509.29391
3.79468,-1510.36069
3.8001,-1511.241
3.80553,-1512.17719
3.81096,-1513.02998
3.81638,-1513.8399
3.82181,-1514.55219
3.82723,-1515.22118
3.83266,-1515.85287
3.83809,-1516.56442
3.84351,-1517.17363
3.84894,-1517.7211
3.85436,-1518.16901
3.85979,-1518.67719
3.86522,-1519.21136
3.87064,-1519.68024
3.87607,-1520.07529
3.88149,-1520.38062
3.88692,-1520.78495
3.89235,-1521.07891
3.89777,-1521.42787
3.9032,-1521.74692
3.90862,-1522.10841
3.91405,-1522.52772
3.91948,-1522.83888
3.9249,-1523.03566
3.93033,-1523.29462
3.93575,-1523.61929
3.94118,-1524.01681
3.94661,-1524.24038
3.95203,-1524.35739
3.95746,-1524.5151
3.96289,-1524.8166
3.96831,-1525.07597
3.97374,-1525.25433
3.97916,-1525.38188
3.98459,-1525.54933
3.99002,-1525.73817
3.99544,-1526.00986
4.00087,-1526.24105
4.00629,-1526.42708
4.01172,-1526.46864
4.01715,-1526.46744
4.02257,-1526.50142
4.028,-1526.72356
4.03342,-1526.93662
4.03885,-1527.10399
4.04428,-1527.20615
4.0497,-1527.28864
4.05513,-1527.42678
4.06055,-1527.56453
4.06598,-1527.65756
4.07141,-1527.81943
4.07683,-1527.8307
4.08226,-1527.84479
4.08768,-1527.92184
4.09311,-1527.9848
4.09854,-1528.09071
4.10396,-1528.17565
4.10939,-1528.30337
4.11481,-1528.33338
4.12024,-1528.27795
4.12567,-1528.30779
4.13109,-1528.39659
4.13652,-1528.48587
4.14194,-1528.5548
4.14737,-1528.49129
4.1528,-1528.39111
4.15822,-1528.3783
4.16365,-1528.47963
4.16907,-1528.56437
4.1745,-1528.53246
4.17993,-1528.49197
4.18535,-1528.42482
4.19078,-1528.37493
4.1962,-1528.37732
4.20163,-1528.42483
4.20706,-1528.51806
4.21248,-1528.58974
4.21791,-1528.48074
4.22333,-1528.41876
4.22876,-1528.25953
4.23419,-1528.17841
4.23961,-1528.04479
4.24504,-1527.92367
4.25046,-1527.92865
4.25589,-1527.95375
4.26132,-1527.91502
4.26674,-1527.80866
4.27217,-1527.69011
4.27759,-1527.54597
4.28302,-1527.507
4.28845,-1527.43422
4.29387,-1527.33361
4.2993,-1527.27411
4.30472,-1527.15861
4.31015,-1527.03775
4.31558,-1526.975
4.321,-1526.92999
4.32643,-1526.85538
4.33186,-1526.74185
4.33728,-1526.64523
4.34271,-1526.49998
4.34813,-1526.33403
4.35356,-1526.18289
4.35899,-1526.04477
4.36441,-1525.96095
4.36984,-1525.78992
4.37526,-1525.68839
4.38069,-1525.43104
4.38612,-1525.291
4.39154,-1525.15044
4.39697,-1525.12752
4.40239,-1525.0415
4.40782,-1524.89628
4.41325,-1524.73204
4.41867,-1524.49061
4.4241,-1524.28117
4.42952,-1524.05727
4.43495,-1523.92485
4.44038,-1523.76363
4.4458,-1523.47187
4.45123,-1523.2403
4.45665,-1522.99419
4.46208,-1522.7896
4.46751,-1522.48748
4.47293,-1522.21503
4.47836,-1521.93498
4.48378,-1521.72988
4.48921,-1521.49371
4.49464,-1521.22931
4.50006,-1520.8032
4.50549,-1520.4704
4.51091,-1520.19518
4.51634,-1519.92564
4.52177,-1519.51375
4.52719,-1519.13213
4.53262,-1518.69069
4.53804,-1518.33365
4.54347,-1517.96912
4.5489,-1517.51086
4.55432,-1517.02413
4.55975,-1516.68453
4.56517,-1516.28565
4.5706,-1515.82696
4.57603,-1515.3702
4.58145,-1514.8839
4.58688,-1514.32218
4.5923,-1513.68407
4.59773,-1513.1395
4.60316,-1512.63293
4.60858,-1512.02734
4.61401,-1511.31353
4.61943,-1510.6435
4.62486,-1509.91807
4.63029,-1509.13139
4.63571,-1508.27619
4.64114,-1507.30791
4.64656,-1506.34397
4.65199,-1505.32751
4.65742,-1504.35558
4.66284,-1503.29949
4.66827,-1502.14066
4.67369,-1500.82014
4.67912,-1499.43363
4.68455,-1498.01913
4.68997,-1496.40537
4.6954,-1494.60815
4.70083,-1492.67204
4.70625,-1490.67767
4.71168,-1488.57929
4.7171,-1486.18652
4.72253,-1483.56236
4.72796,-1480.77828
4.73338,-1477.75912
4.73881,-1474.55131
4.74423,-1470.91972
4.74966,-1467.04728
4.75509,-1462.7591
4.76051,-1458.13929
4.76594,-1452.98989
4.77136,-1447.45579
4.77679,-1441.35574
4.78222,-1434.74175
4.78764,-1427.43563
4.79307,-1419.51893
4.79849,-1410.88023
4.80392,-1401.5557
4.80935,-1391.43555
4.81477,-1380.21986
4.8202,-1368.07821
4.82562,-1354.82293
4.83105,-1340.55224
4.83648,-1325.06045
4.8419,-1308.37908
4.84733,-1290.24755
4.85275,-1270.90347
4.85818,-1250.03085
4.86361,-1227.95846
4.86903,-1204.36034
4.87446,-1179.59017
4.87988,-1153.19216
4.88531,-1125.53109
4.89074,-1096.91509
4.89616,-1067.44219
4.90159,-1037.34716
4.90701,-1006.71026
4.91244,-975.77673
4.91787,-944.92889
4.92329,-914.86675
4.92872,-885.60815
4.93414,-857.95031
4.93957,-831.82793
4.945,-807.74712
4.95042,-786.63146
4.95585,-768.19024
4.96127,-752.92889
4.9667,-741.05352
4.97213,-733.393
4.97755,-729.18591
4.98298,-729.56585
4.9884,-733.35693
4.99383,-741.3941
4.99926,-752.85571
5.00468,-768.11211
5.01011,-786.45922
5.01553,-808.22906
5.02096,-832.54632
5.02639,-858.89208
5.03181,-887.07061
5.03724,-916.28307
5.04267,-946.75713
5.04809,-977.54455
5.05352,-1008.55248
5.05894,-1039.31792
5.06437,-1069.79974
5.0698,-1099.32323
5.07522,-1128.12255
5.08065,-1155.69772
5.08607,-1182.04345
5.0915,-1207.03744
5.09693,-1230.6979
5.10235,-1252.72131
5.10778,-1273.3644
5.1132,-1292.64611
5.11863,-1310.57006
5.12406,-1327.20351
5.12948,-1342.46203
5.13491,-1356.43636
5.14033,-1369.21789
5.14576,-1381.08141
5.15119,-1391.84977
5.15661,-1401.74679
5.16204,-1410.84373
5.16746,-1419.1614
5.17289,-1426.74096
5.17832,-1433.72048
5.18374,-1440.11105
5.18917,-1445.93809
5.19459,-1451.26264
5.20002,-1456.15313
5.20545,-1460.66836
5.21087,-1464.85128
5.2163,-1468.68382
5.22172,-1472.0666
5.22715,-1475.19382
5.23258,-1478.02551
5.238,-1480.75573
5.24343,-1483.23403
5.24885,-1485.45435
5.25428,-1487.42428
5.25971,-1489.3256
5.26513,-1491.09045
5.27056,-1492.77327
5.27598,-1494.30069
5.28141,-1495.62856
5.28684,-1496.74895
5.29226,-1497.8633
5.29769,-1498.95493
5.30311,-1499.85883
5.30854,-1500.65774
5.31397,-1501.50035
5.31939,-1502.21959
5.32482,-1502.84119
5.33024,-1503.40508
5.33567,-1503.9908
5.3411,-1504.55125
5.34652,-1504.92403
5.35195,-1505.26134
5.35737,-1505.56422
5.3628,-1505.8639
5.36823,-1506.15068
5.37365,-1506.39597
5.37908,-1506.55267
5.3845,-1506.70094
5.38993,-1506.8739
5.39536,-1507.00838
5.40078,-1507.11893
5.40621,-1507.11787
5.41164,-1507.03638
5.41706,-1506.94581
5.42249,-1506.89545
5.42791,-1506.81397
5.43334,-1506.6536
5.43877,-1506.52605
5.44419,-1506.30285
5.44962,-1506.08102
5.45504,-1505.89267
5.46047,-1505.62402
5.4659,-1505.29904
5.47132,-1504.90075
5.47675,-1504.3857
5.48217,-1503.91805
5.4876,-1503.48225
5.49303,-1502.94772
5.49845,-1502.28009
5.50388,-1501.58605
5.5093,-1500.91363
5.51473,-1500.18553
5.52016,-1499.33048
5.52558,-1498.47565
5.53101,-1497.56557
5.53643,-1496.47636
5.54186,-1495.2446
5.54729,-1493.89322
5.55271,-1492.52548
5.55814,-1491.11562
5.56356,-1489.57035
5.56899,-1487.8057
5.57442,-1485.88218
5.57984,-1483.7925
5.58527,-1481.60534
5.59069,-1479.23147
5.59612,-1476.61561
5.60155,-1473.70232
5.60697,-1470.57296
5.6124,-1467.17449
5.61782,-1463.46647
5.62325,-1459.3995
5.62868,-1454.94669
5.6341,-1450.11547
5.63953,-1444.81139
5.64495,-1439.08086
5.65038,-1432.784
5.65581,-1425.90302
5.66123,-1418.47689
5.66666,-1410.28805
5.67208,-1401.37321
5.67751,-1391.58985
5.68294,-1381.11341
5.68836,-1369.73704
5.69379,-1357.55819
5.69921,-1344.24096
5.70464,-1329.92532
5.71007,-1314.46905
5.71549,-1298.02496
5.72092,-1280.34136
5.72634,-1261.78475
5.73177,-1242.07186
5.7372,-1221.37811
5.74262,-1199.78115
5.74805,-1177.22768
5.75347,-1154.06402
5.7589,-1130.28146
5.76433,-1106.15966
5.76975,-1081.82964
5.77518,-1057.72283
5.78061,-1033.87426
5.78603,-1010.60955
5.79146,-988.18102
5.79688,-966.78143
5.80231,-947.2
5.80774,-929.61395
5.81316,-914.03197
5.81859,-900.99615
5.82401,-890.56432
5.82944,-882.59527
5.83487,-877.72259
5.84029,-875.61987
5.84572,-876.64416
5.85114,-880.4063
5.85657,-887.52361
5.862,-896.96111
5.86742,-909.52288
5.87285,-924.03576
5.87827,-940.69024
5.8837,-959.11877
5.88913,-979.21343
5.89455,-1000.45971
5.89998,-1022.55193
5.9054,-1045.20873
5.91083,-1067.93707
5.91626,-1090.94225
5.92168,-1113.5555
5.92711,-1135.74599
5.93253,-1157.29623
5.93796,-1178.02981
5.94339,-1197.66592
5.94881,-1216.32107
5.95424,-1233.78494
5.95966,-1249.93563
5.96509,-1265.05151
5.97052,-1278.7871
5.97594,-1291.30602
5.98137,-1302.60976
5.98679,-1312.80975
5.99222,-1321.75057
5.99765,-1329.77734
6.00307,-1336.6769
6.0085,-1342.64941
6.01392,-1347.70431
6.01935,-1351.93328
6.02478,-1355.38769
6.0302,-1358.30035
6.03563,-1360.61211
6.04105,-1362.59353
6.04648,-1364.30952
6.05191,-1365.69444
6.05733,-1366.85561
6.06276,-1367.89597
6.06818,-1368.86103
6.07361,-1369.86466
6.07904,-1371.00927
6.08446,-1372.34086
6.08989,-1373.91706
6.09531,-1375.72309
6.10074,-1377.82206
6.10617,-1380.2474
6.11159,-1382.96563
6.11702,-1385.89123
6.12245,-1389.18005
6.12787,-1392.82314
6.1333,-1396.81335
6.13872,-1401.08947
6.14415,-1405.56001
6.14958,-1410.17089
6.155,-1414.90855
6.16043,-1419.70014
6.16585,-1424.73362
6.17128,-1429.77264
6.17671,-1434.80564
6.18213,-1439.68432
6.18756,-1444.52569
6.19298,-1449.23862
6.19841,-1453.89852
6.20384,-1458.33965
6.20926,-1462.6363
6.21469,-1466.80714
6.22011,-1470.80509
6.22554,-1474.61559
6.23097,-1478.25172
6.23639,-1481.69743
6.24182,-1484.97675
6.24724,-1488.02628
6.25267,-1490.89066
6.2581,-1493.55482
6.26352,-1496.04796
6.26895,-1498.38865
6.27437,-1500.57101
6.2798,-1502.62798
6.28523,-1504.54185
6.29065,-1506.30534
6.29608,-1507.95471
6.3015,-1509.5694
6.30693,-1511.03764
6.31236,-1512.42123
6.31778,-1513.66787
6.32321,-1514.81953
6.32863,-1515.86941
6.33406,-1516.93452
6.33949,-1517.95242
6.34491,-1518.95598
6.35034,-1519.79953
6.35576,-1520.62153
6.36119,-1521.35584
6.36662,-1522.13428
6.37204,-1522.79134
6.37747,-1523.4558
6.38289,-1524.06846
6.38832,-1524.61253
6.39375,-1525.05024
6.39917,-1525.51543
6.4046,-1525.96249
6.41002,-1526.43645
6.41545,-1526.85406
6.42088,-1527.22048
6.4263,-1527.54597
6.43173,-1527.92551
6.43715,-1528.25529
6.44258,-1528.52123
6.44801,-1528.79887
6.45343,-1529.11864
6.45886,-1529.42099
6.46428,-1529.7299
6.46971,-1529.9837
6.47514,-1530.17618
6.48056,-1530.40803
6.48599,-1530.64091
6.49142,-1530.83099
6.49684,-1530.96984
6.50227,-1531.18255
6.50769,-1531.36346
6.51312,-1531.48525
6.51855,-1531.67105
6.52397,-1531.82047
6.5294,-1531.9409
6.53482,-1532.04622
6.54025,-1532.14934
6.54568,-1532.27141
6.5511,-1532.41554
6.55653,-1532.51509
6.56195,-1532.5577
6.56738,-1532.64118
6.57281,-1532.76035
6.57823,-1532.81237
6.58366,-1532.8485
6.58908,-1533.01261
6.59451,-1533.08795
6.59994,-1533.1176
6.60536,-1533.11849
6.61079,-1533.13525
6.61621,-1533.12806
6.62164,-1533.16371
6.62707,-1533.22459
6.63249,-1533.19407
6.63792,-1533.19872
6.64334,-1533.24984
6.64877,-1533.27618
6.6542,-1533.15797
6.65962,-1533.11999
6.66505,-1533.07409
6.67047,-1533.0371
6.6759,-1532.95129
6.68133,-1532.93799
6.68675,-1532.88474
6.69218,-1532.81379
6.6976,-1532.71944
6.70303,-1532.54894
6.70846,-1532.46244
6.71388,-1532.34066
6.71931,-1532.23998
6.72473,-1532.13256
6.73016,-1532.01053
6.73559,-1531.83192
6.74101,-1531.56928
6.74644,-1531.33167
6.75186,-1531.16548
6.75729,-1530.96237
6.76272,-1530.7378
6.76814,-1530.44772
6.77357,-1530.16129
6.77899,-1529.82533
6.78442,-1529.45944
6.78985,-1529.03075
6.79527,-1528.55655
6.8007,-1528.04634
6.80612,-1527.57597
6.81155,-1527.05475
6.81698,-1526.49867
6.8224,-1525.7936
6.82783,-1525.01492
6.83325,-1524.17908
6.83868,-1523.31558
6.84411,-1522.34175
6.84953,-1521.29821
6.85496,-1520.14497
6.86039,-1518.83011
6.86581,-1517.34432
6.87124,-1515.79028
6.87666,-1514.15998
6.88209,-1512.35875
6.88752,-1510.32792
6.89294,-1508.16111
6.89837,-1505.75661
6.90379,-1503.25878
6.90922,-1500.49024
6.91465,-1497.53497
6.92007,-1494.29083
6.9255,-1490.87428
6.93092,-1487.21929
6.93635,-1483.43218
6.94178,-1479.38026
6.9472,-1475.04658
6.95263,-1470.49712
6.95805,-1465.90449
6.96348,-1461.15183
6.96891,-1456.3223
6.97433,-1451.52937
6.97976,-1446.77689
6.98518,-1442.06232
6.99061,-1437.38917
6.99604,-1432.88378
7.00146,-1428.67524
7.00689,-1424.74616
7.01231,-1421.14024
7.01774,-1418.0388
7.02317,-1415.48924
7.02859,-1413.31031
7.03402,-1411.70722
7.03944,-1410.64228
7.04487,-1410.28092
7.0503,-1410.50471
7.05572,-1411.35041
7.06115,-1412.542
7.06657,-1414.41273
7.072,-1416.82575
7.07743,-1419.72376
7.08285,-1423.00475
7.08828,-1426.71876
7.0937,-1430.70206
7.09913,-1434.99154
7.10456,-1439.3711
7.10998,-1443.83653
7.11541,-1448.42175
7.12083,-1453.03594
7.12626,-1457.62588
7.13169,-1462.17468
7.13711,-1466.57188
7.14254,-1470.79531
7.14796,-1474.82429
7.15339,-1478.7179
7.15882,-1482.39176
7.16424,-1485.9091
7.16967,-1489.13825
7.17509,-1492.18221
7.18052,-1495.08567
7.18595,-1497.73719
7.19137,-1500.15164
7.1968,-1502.36629
7.20222,-1504.46237
7.20765,-1506.31909
7.21308,-1508.0737
7.2185,-1509.63204
7.22393,-1511.03603
7.22936,-1512.26269
7.23478,-1513.42075
7.24021,-1514.43954
7.24563,-1515.31044
7.25106,-1516.08624
7.25649,-1516.76759
7.26191,-1517.40159
7.26734,-1517.95718
7.27276,-1518.455
7.27819,-1518.85091
7.28362,-1519.15775
7.28904,-1519.39527
7.29447,-1519.61781
7.29989,-1519.81204
7.30532,-1519.90762
7.31075,-1519.96381
7.31617,-1519.89795
7.3216,-1519.81129
7.32702,-1519.72907
7.33245,-1519.59295
7.33788,-1519.35506
7.3433,-1519.0657
7.34873,-1518.76122
7.35415,-1518.41111
7.35958,-1518.00507
7.36501,-1517.51621
7.37043,-1517.00746
7.37586,-1516.41729
7.38128,-1515.79168
7.38671,-1515.08209
7.39214,-1514.31413
7.39756,-1513.50654
7.40299,-1512.59614
7.40841,-1511.65073
7.41384,-1510.62618
7.41927,-1509.52919
7.42469,-1508.25196
7.43012,-1506.83109
7.43554,-1505.32818
7.44097,-1503.74178
7.4464,-1501.99569
7.45182,-1500.13697
7.45725,-1498.16113
7.46267,-1496.0044
7.4681,-1493.64532
7.47353,-1491.11756
7.47895,-1488.43179
7.48438,-1485.48452
7.4898,-1482.30758
7.49523,-1478.87898
7.50066,-1475.26743
7.50608,-1471.34457
7.51151,-1467.18636
7.51693,-1462.64475
7.52236,-1457.86604
7.52779,-1452.72009
7.53321,-1447.33903
7.53864,-1441.6237
7.54406,-1435.59914
7.54949,-1429.2468
7.55492,-1422.50253
7.56034,-1415.5541
7.56577,-1408.24331
7.5712,-1400.64703
7.57662,-1392.72097
7.58205,-1384.64848
7.58747,-1376.35979
7.5929,-1367.95582
7.59833,-1359.42428
7.60375,-1350.97881
7.60918,-1342.40624
7.6146,-1333.98171
7.62003,-1325.60613
7.62546,-1317.54546
7.63088,-1309.62029
7.63631,-1302.1516
7.64173,-1295.09658
7.64716,-1288.61776
7.65259,-1282.80245
7.65801,-1277.57146
7.66344,-1272.93746
7.66886,-1268.94134
7.67429,-1265.68447
7.67972,-1263.21011
7.68514,-1261.55297
7.69057,-1260.62295
7.69599,-1260.35702
7.70142,-1260.69012
7.70685,-1261.59939
7.71227,-1263.1813
7.7177,-1265.2886
7.72312,-1267.78692
7.72855,-1270.61407
7.73398,-1273.71481
7.7394,-1277.09383
7.74483,-1280.49618
7.75025,-1284.02389
7.75568,-1287.45278
7.76111,-1290.80215
7.76653,-1293.83642
7.77196,-1296.68331
7.77738,-1299.32482
7.78281,-1301.71221
7.78824,-1303.76012
7.79366,-1305.60311
7.79909,-1307.15215
7.80451,-1308.45315
7.80994,-1309.49599
7.81537,-1310.26601
7.82079,-1310.92184
7.82622,-1311.46163
7.83164,-1311.94848
7.83707,-1312.40847
7.8425,-1312.99114
7.84792,-1313.68316
7.85335,-1314.47765
7.85877,-1315.56701
7.8642,-1317.05785
7.86963,-1319.28408
7.87505,-1321.73275
7.88048,-1324.05389
7.8859,-1326.78573
7.89133,-1330.09682
7.89676,-1333.86166
7.90218,-1338.09454
7.90761,-1342.66091
7.91303,-1347.63665
7.91846,-1352.96047
7.92389,-1358.69912
7.92931,-1364.54574
7.93474,-1370.68275
7.94017,-1376.91296
7.94559,-1383.19567
7.95102,-1389.58051
7.95644,-1395.97392
7.96187,-1402.45626
7.9673,-1408.9573
7.97272,-1415.25983
7.97815,-1421.3231
7.98357,-1427.24696
7.989,-1433.00407
7.99443,-1438.52909
7.99985,-1443.88401
8.00528,-1449.08054
8.0107,-1453.89758
8.01613,-1458.53275
8.02156,-1462.95069
8.02698,-1467.10838
8.03241,-1470.97965
8.03783,-1474.65958
8.04326,-1478.16654
8.04869,-1481.40974
8.05411,-1484.40838
8.05954,-1487.18621
8.06496,-1489.78423
8.07039,-1492.20062
8.07582,-1494.47136
8.08124,-1496.59391
8.08667,-1498.56624
8.09209,-1500.38985
8.09752,-1502.01807
8.10295,-1503.54638
8.10837,-1504.98438
8.1138,-1506.24123
8.11922,-1507.47976
8.12465,-1508.62962
8.13008,-1509.71768
8.1355,-1510.69997
8.14093,-1511.5582
8.14635,-1512.35494
8.15178,-1513.14537
8.15721,-1513.85514
8.16263,-1514.40814
8.16806,-1514.92356
8.17348,-1515.48042
8.17891,-1516.00644
8.18434,-1516.48132
8.18976,-1516.85843
8.19519,-1517.21075
8.20061,-1517.51743
8.20604,-1517.82059
8.21147,-1518.07357
8.21689,-1518.29433
8.22232,-1518.45542
8.22774,-1518.56699
8.23317,-1518.6334
8.2386,-1518.65328
8.24402,-1518.69045
8.24945,-1518.72104
8.25487,-1518.80659
8.2603,-1518.82552
8.26573,-1518.80153
8.27115,-1518.66745
8.27658,-1518.51229
8.282,-1518.28867
8.28743,-1518.08138
8.29286,-1517.85135
8.29828,-1517.57387
8.30371,-1517.2399
8.30914,-1516.94419
8.31456,-1516.57246
8.31999,-1516.15551
8.32541,-1515.64431
8.33084,-1515.12048
8.33627,-1514.61143
8.34169,-1514.10311
8.34712,-1513.4604
8.35254,-1512.66911
8.35797,-1511.78015
8.3634,-1510.90868
8.36882,-1510.03019
8.37425,-1509.01507
8.37967,-1507.93341
8.3851,-1506.70641
8.39053,-1505.38838
8.39595,-1504.02797
8.40138,-1502.46404
8.4068,-1500.73653
8.41223,-1498.89896
8.41766,-1496.97968
8.42308,-1494.89324
8.42851,-1492.65498
8.43393,-1490.23064
8.43936,-1487.65913
8.44479,-1484.87667
8.45021,-1481.89619
8.45564,-1478.72283
8.46106,-1475.35287
8.46649,-1471.78481
8.47192,-1467.93971
8.47734,-1463.84051
8.48277,-1459.43601
8.48819,-1454.80439
8.49362,-1449.95373
8.49905,-1444.79813
8.50447,-1439.51037
8.5099,-1433.98835
8.51532,-1428.29269
8.52075,-1422.29108
8.52618,-1416.19646
8.5316,-1409.93766
8.53703,-1403.58112
8.54245,-1397.0458
8.54788,-1390.41261
8.55331,-1383.74772
8.55873,-1377.24288
8.56416,-1370.8709
8.56958,-1364.61776
8.57501,-1358.48443
8.58044,-1352.67297
8.58586,-1347.23006
8.59129,-1342.21578
8.59671,-1337.63238
8.60214,-1333.46148
8.60757,-1329.82821
8.61299,-1326.86092
8.61842,-1324.54134
8.62384,-1322.85659
8.62927,-1321.89263
8.6347,-1321.56255
8.64012,-1321.9233
8.64555,-1322.92367
8.65098,-1324.63879
8.6564,-1327.05267
8.66183,-1330.18072
8.66725,-1333.83703
8.67268,-1337.97558
8.67811,-1342.55239
8.68353,-1347.60543
8.68896,-1352.98928
8.69438,-1358.66897
8.69981,-1364.56481
8.70524,-1370.65463
8.71066,-1376.89999
8.71609,-1383.24136
8.72151,-1389.6087
8.72694,-1395.96801
8.73237,-1402.31855
8.73779,-1408.49512
8.74322,-1414.49029
8.74864,-1420.37858
8.75407,-1426.15969
8.7595,-1431.71145
8.76492,-1436.98507
8.77035,-1441.97509
8.77577,-1446.78849
8.7812,-1451.35354
8.78663,-1455.60873
8.79205,-1459.6114
8.79748,-1463.42976
8.8029,-1466.98629
8.80833,-1470.32516
8.81376,-1473.41558
8.81918,-1476.26971
8.82461,-1478.94271
8.83003,-1481.32739
8.83546,-1483.53742
8.84089,-1485.55418
8.84631,-1487.44538
8.85174,-1489.11048
8.85716,-1490.55428
8.86259,-1491.87289
8.86802,-1493.10773
8.87344,-1494.16621
8.87887,-1495.01443
8.88429,-1495.66898
8.88972,-1496.21496
8.89515,-1496.5837
8.90057,-1496.81817
8.906,-1496.97136
8.91142,-1496.98463
8.91685,-1496.80563
8.92228,-1496.4806
8.9277,-1496.0557
8.93313,-1495.47611
8.93855,-1494.75121
8.94398,-1493.85287
8.94941,-1492.74132
8.95483,-1491.43226
8.96026,-1490.02677
8.96568,-1488.45013
8.97111,-1486.72327
8.97654,-1484.76711
8.98196,-1482.58288
8.98739,-1480.12449
8.99281,-1477.59937
8.99824,-1474.77662
9.00367,-1471.70416
9.00909,-1468.34652
9.01452,-1464.80967
9.01995,-1461.01527
9.02537,-1457.00761
9.0308,-1452.71641
9.03622,-1448.18296
9.04165,-1443.41552
9.04708,-1438.48153
9.0525,-1433.41727
9.05793,-1428.11362
9.06335,-1422.74145
9.06878,-1417.12524
9.07421,-1411.52685
9.07963,-1405.8863
9.08506,-1400.32935
9.09048,-1394.7802
9.09591,-1389.46413
9.10134,-1384.23689
9.10676,-1379.45399
9.11219,-1375.06948
9.11761,-1370.72948
9.12304,-1366.65202
9.12847,-1363.20495
9.13389,-1360.14645
9.13932,-1357.68627
9.14474,-1355.9659
9.15017,-1354.65768
9.1556,-1353.99535
9.16102,-1353.93664
9.16645,-1354.65713
9.17187,-1356.00216
9.1773,-1357.88009
9.18273,-1360.22424
9.18815,-1363.2272
9.19358,-1366.63239
9.199,-1370.62408
9.20443,-1375.04913
9.20986,-1379.84689
9.21528,-1384.88818
9.22071,-1390.15647
9.22613,-1395.68775
9.23156,-1401.3698
9.23699,-1407.17544
9.24241,-1412.9757
9.24784,-1418.78312
9.25326,-1424.49824
9.25869,-1430.14603
9.26412,-1435.65109
9.26954,-1441.07334
9.27497,-1446.3305
9.28039,-1451.40655
9.28582,-1456.34657
9.29125,-1461.03259
9.29667,-1465.45638
9.3021,-1469.68858
9.30752,-1473.72401
9.31295,-1477.58826
9.31838,-1481.16196
9.3238,-1484.59794
9.32923,-1487.81232
9.33465,-1490.80605
9.34008,-1493.54253
9.34551,-1496.18347
9.35093,-1498.72995
9.35636,-1501.0766
9.36178,-1503.23503
9.36721,-1505.25521
9.37264,-1507.05779
9.37806,-1508.70033
9.38349,-1510.27369
9.38892,-1511.85817
9.39434,-1513.27813
9.39977,-1514.57282
9.40519,-1515.75047
9.41062,-1516.88001
9.41605,-1517.86258
9.42147,-1518.83369
9.4269,-1519.70988
9.43232,-1520.47897
9.43775,-1521.24536
9.44318,-1522.06503
9.4486,-1522.80415
9.45403,-1523.41606
9.45945,-1523.96015
9.46488,-1524.47298
9.47031,-1524.96196
9.47573,-1525.43659
9.48116,-1525.89185
9.48658,-1526.31966
9.49201,-1526.68111
9.49744,-1527.06148
9.50286,-1527.41943
9.50829,-1527.75369
9.51371,-1527.96602
9.51914,-1528.18369
9.52457,-1528.47165
9.52999,-1528.77127
9.53542,-1529.02846
9.54084,-1529.21299
9.54627,-1529.41731
9.5517,-1529.59437
9.55712,-1529.71939
9.56255,-1529.82181
9.56797,-1529.90826
9.5734,-1529.99657
9.57883,-1530.04902
9.58425,-1530.14137
9.58968,-1530.24484
9.5951,-1530.34614
9.60053,-1530.36138
9.60596,-1530.3633
9.61138,-1530.36285
9.61681,-1530.39452
9.62223,-1530.41625
9.62766,-1530.41058
9.63309,-1530.40671
9.63851,-1530.39086
9.64394,-1530.29708
9.64936,-1530.23061
9.65479,-1530.0741
9.66022,-1529.94857
9.66564,-1529.84813
9.67107,-1529.73724
9.67649,-1529.59213
9.68192,-1529.42049
9.68735,-1529.25272
9.69277,-1528.9442
9.6982,-1528.6107
9.70362,-1528.26314
9.70905,-1527.98791
9.71448,-1527.72203
9.7199,-1527.35594
9.72533,-1526.89617
9.73075,-1526.48307
9.73618,-1526.08186
9.74161,-1525.58131
9.74703,-1525.0703
9.75246,-1524.54287
9.75789,-1523.93069
9.76331,-1523.23375
9.76874,-1522.45792
9.77416,-1521.691
9.77959,-1520.93273
9.78502,-1520.11752
9.79044,-1519.19868
9.79587,-1518.23576
9.80129,-1517.14948
9.80672,-1516.07586
9.81215,-1514.94671
9.81757,-1513.79359
9.823,-1512.49054
9.82842,-1511.13882
9.83385,-1509.73078
9.83928,-1508.3119
9.8447,-1506.76136
9.85013,-1505.21788
9.85555,-1503.60452
9.86098,-1501.93037
9.86641,-1500.18346
9.87183,-1498.43807
9.87726,-1496.73586
9.88268,-1494.97491
9.88811,-1493.1452
9.89354,-1491.37312
9.89896,-1489.59396
9.90439,-1487.87769
9.90981,-1486.17956
9.91524,-1484.55366
9.92067,-1483.02189
9.92609,-1481.56547
9.93152,-1480.24444
9.93694,-1478.99403
9.94237,-1477.83355
9.9478,-1476.8151
9.95322,-1475.94729
9.95865,-1475.19883
9.96407,-1474.57365
9.9695,-1474.16863
9.97493,-1473.94329
9.98035,-1473.85079
9.98578,-1473.84277
9.9912,-1474.05431
9.99663,-1474.45464
10.00206,-1475.00455
10.00748,-1475.60839
10.01291,-1476.37289
10.01833,-1477.26939
10.02376,-1478.26446
10.02919,-1479.38764
10.03461,-1480.54101
10.04004,-1481.75883
10.04546,-1482.98301
10.05089,-1484.2604
10.05632,-1485.57235
10.06174,-1486.88978
10.06717,-1488.2033
10.07259,-1489.52105
10.07802,-1490.78799
10.08345,-1491.94557
10.08887,-1493.10853
10.0943,-1494.19223
10.09973,-1495.19624
10.10515,-1496.11758
10.11058,-1497.02171
10.116,-1497.87219
10.12143,-1498.64207
10.12686,-1499.23108
10.13228,-1499.74959
10.13771,-1500.15628
10.14313,-1500.42459
10.14856,-1500.64555
10.15399,-1500.78098
10.15941,-1500.80721
10.16484,-1500.62305
10.17026,-1500.35828
10.17569,-1500.09151
10.18112,-1499.68887
10.18654,-1499.1187
10.19197,-1498.41566
10.19739,-1497.64093
10.20282,-1496.74467
10.20825,-1495.66114
10.21367,-1494.41409
10.2191,-1493.0209
10.22452,-1491.45876
10.22995,-1489.75663
10.23538,-1487.98014
10.2408,-1486.02778
10.24623,-1483.87833
10.25165,-1481.55311
10.25708,-1479.03197
10.26251,-1476.37812
10.26793,-1473.51962
10.27336,-1470.4818
10.27878,-1467.15658
10.28421,-1463.77721
10.28964,-1460.22155
10.29506,-1456.48835
10.30049,-1452.47076
10.30591,-1448.27372
10.31134,-1443.98292
10.31677,-1439.55953
10.32219,-1435.00925
10.32762,-1430.34435
10.33304,-1425.5939
10.33847,-1420.75785
10.3439,-1415.76041
10.34932,-1410.69151
10.35475,-1405.67889
10.36017,-1400.73775
10.3656,-1395.95921
10.37103,-1391.22887
10.37645,-1386.59312
10.38188,-1382.07322
10.3873,-1377.76594
10.39273,-1373.61634
10.39816,-1369.7308
10.40358,-1366.14085
10.40901,-1362.97289
10.41443,-1360.062
10.41986,-1357.4526
10.42529,-1355.12832
10.43071,-1353.27532
10.43614,-1351.77422
10.44156,-1350.69152
10.44699,-1349.949
10.45242,-1349.65051
10.45784,-1349.67229
10.46327,-1350.02679
10.4687,-1350.69833
10.47412,-1351.69274
10.47955,-1352.87579
10.48497,-1354.35
10.4904,-1356.05087
10.49583,-1357.9753
10.50125,-1360.12798
10.50668,-1362.39385
10.5121,-1364.75404
10.51753,-1367.20185
10.52296,-1369.87791
10.52838,-1372.56182
10.53381,-1375.37862
10.53923,-1378.30465
10.54466,-1381.29269
10.55009,-1384.27142
10.55551,-1387.32967
10.56094,-1390.50422
10.56636,-1393.7252
10.57179,-1396.98995
10.57722,-1400.29249
10.58264,-1403.71127
10.58807,-1407.14242
10.59349,-1410.57438
10.59892,-1414.06145
10.60435,-1417.65948
10.60977,-1421.27201
10.6152,-1424.94134
10.62062,-1428.59873
10.62605,-1432.23719
10.63148,-1435.88589
10.6369,-1439.54684
10.64233,-1443.17538
10.64775,-1446.75909
10.65318,-1450.26518
10.65861,-1453.76746
10.66403,-1457.15455
10.66946,-1460.50744
10.67488,-1463.70646
10.68031,-1466.82436
10.68574,-1469.90678
10.69116,-1472.90319
10.69659,-1475.81292
10.70201,-1478.6108
10.70744,-1481.23003
10.71287,-1483.74636
10.71829,-1486.1883
10.72372,-1488.54877
10.72914,-1490.76226
10.73457,-1492.8254
10.74,-1494.78642
10.74542,-1496.67772
10.75085,-1498.47904
10.75627,-1500.07539
10.7617,-1501.67185
10.76713,-1503.18243
10.77255,-1504.60157
10.77798,-1505.87424
10.7834,-1507.0743
10.78883,-1508.19761
10.79426,-1509.25037
10.79968,-1510.18073
10.80511,-1511.02808
10.81053,-1511.88155
10.81596,-1512.65661
10.82139,-1513.38417
10.82681,-1514.04842
10.83224,-1514.68533
10.83767,-1515.25784
10.84309,-1515.74463
10.84852,-1516.23058
10.85394,-1516.62336
10.85937,-1516.91061
10.8648,-1517.0884
10.87022,-1517.28481
10.87565,-1517.45275
10.88107,-1517.56864
10.8865,-1517.62335
10.89193,-1517.62431
10.89735,-1517.62883
10.90278,-1517.60986
10.9082,-1517.4608
10.91363,-1517.26386
10.91906,-1517.01435
10.92448,-1516.69502
10.92991,-1516.30145
10.93533,-1515.81346
10.94076,-1515.3099
10.94619,-1514.70155
10.95161,-1514.01244
10.95704,-1513.29176
10.96246,-1512.47997
10.96789,-1511.60629
10.97332,-1510.65369
10.97874,-1509.60631
10.98417,-1508.42766
10.98959,-1507.16127
10.99502,-1505.81757
11.00045,-1504.35218
11.00587,-1502.83725
11.0113,-1501.20261
11.01672,-1499.50697
11.02215,-1497.68106
11.02758,-1495.7963
11.033,-1493.78233
11.03843,-1491.69696
11.04385,-1489.52943
11.04928,-1487.37437
11.05471,-1485.18371
11.06013,-1482.93972
11.06556,-1480.61373
11.07098,-1478.27731
11.07641,-1475.97491
11.08184,-1473.6791
11.08726,-1471.44064
11.09269,-1469.21453
11.09811,-1467.11611
11.10354,-1465.11581
11.10897,-1463.25866
11.11439,-1461.56556
11.11982,-1459.99116
11.12524,-1458.59739
11.13067,-1457.36816
11.1361,-1456.33349
11.14152,-1455.52991
11.14695,-1455.04499
11.15237,-1454.72643
11.1578,-1454.59885
11.16323,-1454.71267
11.16865,-1455.14877
11.17408,-1455.81028
11.17951,-1456.65939
11.18493,-1457.72703
11.19036,-1458.91877
11.19578,-1460.34467
11.20121,-1461.92347
11.20664,-1463.66836
11.21206,-1465.50263
11.21749,-1467.49693
11.22291,-1469.52853
11.22834,-1471.59583
11.23377,-1473.76301
11.23919,-1475.95927
11.24462,-1478.18121
11.25004,-1480.30779
11.25547,-1482.47269
11.2609,-1484.5494
11.26632,-1486.59794
11.27175,-1488.55222
11.27717,-1490.47323
11.2826,-1492.26155
11.28803,-1494.01657
11.29345,-1495.6543
11.29888,-1497.20956
11.3043,-1498.67863
11.30973,-1500.07322
11.31516,-1501.37824
11.32058,-1502.58498
11.32601,-1503.53265
11.33143,-1504.38438
11.33686,-1505.1459
11.34229,-1505.8097
11.34771,-1506.33214
11.35314,-1506.79912
11.35856,-1507.19777
11.36399,-1507.48917
11.36942,-1507.68858
11.37484,-1507.76194
11.38027,-1507.74644
11.38569,-1507.60616
11.39112,-1507.37209
11.39655,-1507.08318
11.40197,-1506.66753
11.4074,-1506.17579
11.41282,-1505.5276
11.41825,-1504.90106
11.42368,-1504.20225
11.4291,-1503.3892
11.43453,-1502.52251
11.43995,-1501.64242
11.44538,-1500.59169
11.45081,-1499.43808
11.45623,-1498.26857
11.46166,-1497.13496
11.46708,-1495.86059
11.47251,-1494.60549
11.47794,-1493.22964
11.48336,-1491.82148
11.48879,-1490.34893
11.49421,-1489.00462
11.49964,-1487.62887
11.50507,-1486.19138
11.51049,-1484.78033
11.51592,-1483.41035
11.52134,-1482.01864
11.52677,-1480.5738
11.5322,-1479.22109
11.53762,-1477.92281
11.54305,-1476.69238
11.54848,-1475.48939
11.5539,-1474.3971
11.55933,-1473.413
11.56475,-1472.50249
11.57018,-1471.66196
11.57561,-1470.82426
11.58103,-1470.10715
11.58646,-1469.42817
11.59188,-1468.82748
11.59731,-1468.34869
11.60274,-1467.96128
11.60816,-1467.63827
11.61359,-1467.43583
11.61901,-1467.37988
11.62444,-1467.32529
11.62987,-1467.33982
11.63529,-1467.41242
11.64072,-1467.57806
11.64614,-1467.82119
11.65157,-1468.12811
11.657,-1468.59376
11.66242,-1469.0644
11.66785,-1469.66264
11.67327,-1470.32708
11.6787,-1471.09385
11.68413,-1471.87783
11.68955,-1472.74534
11.69498,-1473.6854
11.7004,-1474.6768
11.70583,-1475.81052
11.71126,-1477.03071
11.71668,-1478.30735
11.72211,-1479.58987
11.72753,-1480.96427
11.73296,-1482.43839
11.73839,-1483.89228
11.74381,-1485.41407
11.74924,-1486.9977
11.75466,-1488.648
11.76009,-1490.24006
11.76552,-1491.91351
11.77094,-1493.63885
11.77637,-1495.33517
11.78179,-1496.90613
11.78722,-1498.51183
11.79265,-1500.09297
11.79807,-1501.68584
11.8035,-1503.21849
11.80892,-1504.72812
11.81435,-1506.20521
11.81978,-1507.62435
11.8252,-1509.01941
11.83063,-1510.36841
11.83605,-1511.69035
11.84148,-1512.90085
11.84691,-1514.08405
11.85233,-1515.17748
11.85776,-1516.26575
11.86318,-1517.27742
11.86861,-1518.24368
11.87404,-1519.2245
11.87946,-1520.13658
11.88489,-1520.97036
11.89031,-1521.70735
11.89574,-1522.43241
11.90117,-1523.11505
11.90659,-1523.73915
11.91202,-1524.34222
11.91745,-1524.86793
11.92287,-1525.36718
11.9283,-1525.78438
11.93372,-1526.22416
11.93915,-1526.64252
11.94458,-1527.04678
11.95,-1527.3746
11.95543,-1527.59139
11.96085,-1527.78011
11.96628,-1528.01022
11.97171,-1528.25872
11.97713,-1528.45945
11.98256,-1528.63603
11.98798,-1528.79552
11.99341,-1528.9305
11.99884,-1528.97813
12.00426,-1529.00867
12.00969,-1528.981
12.01511,-1529.00335
12.02054,-1529.01083
12.02597,-1528.94389
12.03139,-1528.85928
12.03682,-1528.75244
12.04224,-1528.65918
12.04767,-1528.53641
12.0531,-1528.39941
12.05852,-1528.17037
12.06395,-1527.90353
12.06937,-1527.66966
12.0748,-1527.47777
12.08023,-1527.3002
12.08565,-1527.04086
12.09108,-1526.75821
12.0965,-1526.43912
12.10193,-1526.06437
12.10736,-1525.65726
12.11278,-1525.29091
12.11821,-1524.98638
12.12363,-1524.63912
12.12906,-1524.29033
12.13449,-1523.90247
12.13991,-1523.53567
12.14534,-1523.11964
12.15076,-1522.75958
12.15619,-1522.35807
12.16162,-1522.01109
12.16704,-1521.69012
12.17247,-1521.42567
12.17789,-1521.09142
12.18332,-1520.74562
12.18875,-1520.47099
12.19417,-1520.17089
12.1996,-1519.89946
12.20502,-1519.59655
12.21045,-1519.33163
