2theta (700C),intensity (700C)
0.2135,-1324.46697
0.21892,-1319.70416
0.22435,-1317.61006
0.22978,-1314.10869
0.2352,-1314.7705
0.24063,-1312.88435
0.24605,-1312.95012
0.25148,-1310.74214
0.25691,-1310.32106
0.26233,-1309.10619
0.26776,-1307.95145
0.27318,-1306.32828
0.27861,-1304.95316
0.28404,-1303.39331
0.28946,-1302.18417
0.29489,-1301.16858
0.30031,-1300.71764
0.30574,-1300.17617
0.31117,-1299.5474
0.31659,-1298.36949
0.32202,-1297.02853
0.32744,-1296.5361
0.33287,-1295.76422
0.3383,-1295.15713
0.34372,-1294.46899
0.34915,-1294.02606
0.35458,-1292.91684
0.36,-1292.18667
0.36543,-1291.31098
0.37085,-1290.51067
0.37628,-1289.40605
0.38171,-1288.30584
0.38713,-1286.43669
0.39256,-1283.7461
0.39798,-1278.74417
0.40341,-1270.19955
0.40884,-1260.2722
0.41426,-1245.24176
0.41969,-1228.72306
0.42511,-1208.86224
0.43054,-1190.67479
0.43597,-1168.80751
0.44139,-1150.35764
0.44682,-1128.64359
0.45224,-1118.22368
0.45767,-1105.21054
0.4631,-1096.95653
0.46852,-1081.35392
0.47395,-1075.40346
0.47937,-1069.32125
0.4848,-1067.7162
0.49023,-1064.82408
0.49565,-1065.49977
0.50108,-1067.36879
0.5065,-1070.00817
0.51193,-1073.01204
0.51736,-1077.38442
0.52278,-1083.89308
0.52821,-1088.01844
0.53363,-1093.41794
0.53906,-1095.45031
0.54449,-1100.97538
0.54991,-1102.96285
0.55534,-1108.37554
0.56076,-1109.96074
0.56619,-1115.01189
0.57162,-1116.4975
0.57704,-1120.67185
0.58247,-1122.45764
0.58789,-1125.36588
0.59332,-1126.59131
0.59875,-1129.55584
0.60417,-1131.33628
0.6096,-1133.6064
0.61502,-1134.57624
0.62045,-1137.23087
0.62588,-1140.23586
0.6313,-1143.16512
0.63673,-1145.44817
0.64215,-1148.12583
0.64758,-1150.83724
0.65301,-1153.78537
0.65843,-1156.96381
0.66386,-1160.10712
0.66928,-1163.26084
0.67471,-1165.73233
0.68014,-1168.49659
0.68556,-1171.02173
0.69099,-1173.7459
0.69641,-1176.24581
0.70184,-1178.42516
0.70727,-1180.55551
0.71269,-1182.85901
0.71812,-1184.91239
0.72355,-1186.72229
0.72897,-1188.62763
0.7344,-1190.37851
0.73982,-1191.89272
0.74525,-1193.31594
0.75068,-1194.90821
0.7561,-1196.66402
0.76153,-1198.10363
0.76695,-1199.55272
0.77238,-1200.99904
0.77781,-1202.3209
0.78323,-1203.54355
0.78866,-1204.9599
0.79408,-1206.38099
0.79951,-1207.52578
0.80494,-1208.48085
0.81036,-1209.26895
0.81579,-1210.33616
0.82121,-1211.42771
0.82664,-1212.38336
0.83207,-1213.17081
0.83749,-1213.66645
0.84292,-1214.51163
0.84834,-1215.25728
0.85377,-1216.04983
0.8592,-1216.76408
0.86462,-1217.80372
0.87005,-1218.67083
0.87547,-1219.28565
0.8809,-1219.83395
0.88633,-1220.62326
0.89175,-1221.43357
0.89718,-1222.1541
0.9026,-1222.69664
0.90803,-1223.19232
0.91346,-1223.55017
0.91888,-1223.96009
0.92431,-1224.6166
0.92973,-1225.05964
0.93516,-1225.88748
0.94059,-1226.37062
0.94601,-1226.82698
0.95144,-1227.22293
0.95686,-1227.8127
0.96229,-1228.21342
0.96772,-1228.46741
0.97314,-1228.66166
0.97857,-1229.06224
0.98399,-1229.52081
0.98942,-1229.98355
0.99485,-1230.25337
1.00027,-1230.46053
1.0057,-1230.77114
1.01112,-1231.20354
1.01655,-1231.60715
1.02198,-1231.92884
1.0274,-1232.06366
1.03283,-1232.12104
1.03825,-1232.29811
1.04368,-1232.42288
1.04911,-1232.58999
1.05453,-1232.77082
1.05996,-1233.14318
1.06539,-1233.44974
1.07081,-1233.85556
1.07624,-1234.20054
1.08166,-1234.57779
1.08709,-1235.07405
1.09252,-1235.31351
1.09794,-1235.60958
1.10337,-1236.04497
1.10879,-1236.506
1.11422,-1236.68864
1.11965,-1236.90918
1.12507,-1236.93257
1.1305,-1237.1967
1.13592,-1237.31489
1.14135,-1237.35554
1.14678,-1237.54012
1.1522,-1237.66924
1.15763,-1237.97232
1.16305,-1238.26639
1.16848,-1238.64305
1.17391,-1238.84157
1.17933,-1239.07661
1.18476,-1239.21012
1.19018,-1239.4618
1.19561,-1239.50381
1.20104,-1239.57809
1.20646,-1239.69308
1.21189,-1239.75473
1.21731,-1239.77124
1.22274,-1239.93733
1.22817,-1240.13089
1.23359,-1240.28381
1.23902,-1240.25248
1.24444,-1240.38527
1.24987,-1240.44284
1.2553,-1240.41017
1.26072,-1240.53985
1.26615,-1240.9328
1.27157,-1241.03012
1.277,-1241.14293
1.28243,-1241.43956
1.28785,-1241.48374
1.29328,-1241.52941
1.2987,-1241.64353
1.30413,-1241.96646
1.30956,-1242.11404
1.31498,-1242.27042
1.32041,-1242.29444
1.32583,-1242.38351
1.33126,-1242.51188
1.33669,-1242.66021
1.34211,-1242.82972
1.34754,-1242.94188
1.35296,-1243.13836
1.35839,-1243.11296
1.36382,-1243.2196
1.36924,-1243.40751
1.37467,-1243.51921
1.38009,-1243.53015
1.38552,-1243.66581
1.39095,-1243.74676
1.39637,-1244.00035
1.4018,-1244.05976
1.40722,-1244.25549
1.41265,-1244.39204
1.41808,-1244.43891
1.4235,-1244.22417
1.42893,-1244.17897
1.43436,-1244.25369
1.43978,-1244.61277
1.44521,-1244.7332
1.45063,-1244.91649
1.45606,-1245.13937
1.46149,-1245.32441
1.46691,-1245.26428
1.47234,-1245.26249
1.47776,-1245.37935
1.48319,-1245.39585
1.48862,-1245.4257
1.49404,-1245.41507
1.49947,-1245.42012
1.50489,-1245.25779
1.51032,-1245.38389
1.51575,-1245.49939
1.52117,-1245.65766
1.5266,-1245.75962
1.53202,-1245.96798
1.53745,-1245.92357
1.54288,-1245.85186
1.5483,-1245.9307
1.55373,-1246.2532
1.55915,-1246.43603
1.56458,-1246.40976
1.57001,-1246.37961
1.57543,-1246.53315
1.58086,-1246.61193
1.58628,-1246.60891
1.59171,-1246.51902
1.59714,-1246.60961
1.60256,-1246.67797
1.60799,-1246.6831
1.61341,-1246.7141
1.61884,-1246.61783
1.62427,-1246.62838
1.62969,-1246.61196
1.63512,-1246.79367
1.64054,-1246.87699
1.64597,-1246.85961
1.6514,-1246.72026
1.65682,-1246.64614
1.66225,-1246.75294
1.66767,-1246.76338
1.6731,-1246.81494
1.67853,-1246.84034
1.68395,-1246.92978
1.68938,-1246.91562
1.6948,-1246.84568
1.70023,-1246.835
1.70566,-1246.92947
1.71108,-1247.03441
1.71651,-1247.02255
1.72193,-1247.08858
1.72736,-1247.18212
1.73279,-1247.39232
1.73821,-1247.33097
1.74364,-1247.27247
1.74906,-1247.17489
1.75449,-1247.41173
1.75992,-1247.49033
1.76534,-1247.53891
1.77077,-1247.38863
1.77619,-1247.49166
1.78162,-1247.51057
1.78705,-1247.67024
1.79247,-1247.62151
1.7979,-1247.69575
1.80333,-1247.76207
1.80875,-1247.56795
1.81418,-1247.4957
1.8196,-1247.49225
1.82503,-1247.64724
1.83046,-1247.6865
1.83588,-1247.61583
1.84131,-1247.45465
1.84673,-1247.57046
1.85216,-1247.51735
1.85759,-1247.68251
1.86301,-1247.74173
1.86844,-1247.83804
1.87386,-1247.74819
1.87929,-1247.67408
1.88472,-1247.59967
1.89014,-1247.59143
1.89557,-1247.57493
1.90099,-1247.69608
1.90642,-1247.87004
1.91185,-1247.86335
1.91727,-1247.74857
1.9227,-1247.57299
1.92812,-1247.50575
1.93355,-1247.45599
1.93898,-1247.61488
1.9444,-1247.53289
1.94983,-1247.66294
1.95525,-1247.65234
1.96068,-1247.63568
1.96611,-1247.48705
1.97153,-1247.42814
1.97696,-1247.31993
1.98238,-1247.27365
1.98781,-1247.24919
1.99324,-1247.34165
1.99866,-1247.30921
2.00409,-1247.18539
2.00951,-1247.15013
2.01494,-1247.22698
2.02037,-1247.28481
2.02579,-1247.27751
2.03122,-1247.24654
2.03664,-1247.18849
2.04207,-1247.197
2.0475,-1247.24015
2.05292,-1247.26659
2.05835,-1247.39621
2.06377,-1247.42436
2.0692,-1247.57401
2.07463,-1247.66501
2.08005,-1247.74429
2.08548,-1247.74482
2.0909,-1247.72462
2.09633,-1247.73133
2.10176,-1247.79246
2.10718,-1247.91448
2.11261,-1247.99269
2.11803,-1248.12829
2.12346,-1248.31176
2.12889,-1248.34591
2.13431,-1248.35442
2.13974,-1248.32713
2.14516,-1248.40752
2.15059,-1248.40515
2.15602,-1248.40599
2.16144,-1248.50286
2.16687,-1248.5415
2.1723,-1248.50778
2.17772,-1248.45333
2.18315,-1248.54248
2.18857,-1248.6614
2.194,-1248.72074
2.19943,-1248.67751
2.20485,-1248.63627
2.21028,-1248.55814
2.2157,-1248.61885
2.22113,-1248.71846
2.22656,-1248.87687
2.23198,-1248.96344
2.23741,-1248.91343
2.24283,-1248.79444
2.24826,-1248.78559
2.25369,-1248.76078
2.25911,-1248.76673
2.26454,-1248.78002
2.26996,-1248.8109
2.27539,-1248.82814
2.28082,-1248.69058
2.28624,-1248.63888
2.29167,-1248.58824
2.29709,-1248.6865
2.30252,-1248.79061
2.30795,-1248.8776
2.31337,-1248.818
2.3188,-1248.84274
2.32422,-1248.77458
2.32965,-1248.70484
2.33508,-1248.59683
2.3405,-1248.61908
2.34593,-1248.68058
2.35135,-1248.77076
2.35678,-1248.80928
2.36221,-1248.83382
2.36763,-1248.76904
2.37306,-1248.73375
2.37848,-1248.64801
2.38391,-1248.56295
2.38934,-1248.53377
2.39476,-1248.53222
2.40019,-1248.57688
2.40561,-1248.35392
2.41104,-1248.18193
2.41647,-1248.06368
2.42189,-1248.11241
2.42732,-1248.10318
2.43274,-1247.95919
2.43817,-1247.85659
2.4436,-1247.74831
2.44902,-1247.7163
2.45445,-1247.50428
2.45987,-1247.4551
2.4653,-1247.33419
2.47073,-1247.23258
2.47615,-1247.0367
2.48158,-1247.0562
2.487,-1247.05152
2.49243,-1247.0826
2.49786,-1246.95297
2.50328,-1246.79232
2.50871,-1246.53398
2.51414,-1246.26555
2.51956,-1246.01549
2.52499,-1245.89636
2.53041,-1245.79823
2.53584,-1245.65023
2.54127,-1245.49527
2.54669,-1245.31539
2.55212,-1245.12929
2.55754,-1244.83972
2.56297,-1244.70193
2.5684,-1244.36589
2.57382,-1244.16114
2.57925,-1243.81288
2.58467,-1243.62476
2.5901,-1243.32884
2.59553,-1243.11265
2.60095,-1242.82396
2.60638,-1242.48198
2.6118,-1242.07125
2.61723,-1241.75569
2.62266,-1241.3938
2.62808,-1240.95703
2.63351,-1240.59879
2.63893,-1240.16317
2.64436,-1239.77799
2.64979,-1239.298
2.65521,-1238.86191
2.66064,-1238.22776
2.66606,-1237.71013
2.67149,-1237.18147
2.67692,-1236.77087
2.68234,-1236.15444
2.68777,-1235.49726
2.69319,-1234.74711
2.69862,-1233.97264
2.70405,-1233.20115
2.70947,-1232.46399
2.7149,-1231.67527
2.72032,-1230.80361
2.72575,-1229.88938
2.73118,-1228.78688
2.7366,-1227.65119
2.74203,-1226.50824
2.74745,-1225.40712
2.75288,-1224.11028
2.75831,-1222.73178
2.76373,-1221.26747
2.76916,-1219.71997
2.77458,-1218.05552
2.78001,-1216.33911
2.78544,-1214.45443
2.79086,-1212.4224
2.79629,-1210.30629
2.80171,-1208.04115
2.80714,-1205.597
2.81257,-1202.86464
2.81799,-1199.9888
2.82342,-1197.00981
2.82884,-1193.74247
2.83427,-1190.30689
2.8397,-1186.68122
2.84512,-1182.88013
2.85055,-1178.60561
2.85597,-1173.89691
2.8614,-1168.67232
2.86683,-1163.2367
2.87225,-1157.32096
2.87768,-1150.76599
2.88311,-1143.50237
2.88853,-1135.42108
2.89396,-1126.48099
2.89938,-1116.46262
2.90481,-1105.10468
2.91024,-1091.62229
2.91566,-1076.40294
2.92109,-1058.42845
2.92651,-1037.5324
2.93194,-1012.99843
2.93737,-984.43282
2.94279,-948.68291
2.94822,-908.24782
2.95364,-857.99376
2.95907,-799.44301
2.9645,-728.66976
2.96992,-646.67482
2.97535,-548.94973
2.98077,-440.56276
2.9862,-315.53127
2.99163,-177.97585
2.99705,-29.88185
3.00248,128.31627
3.0079,289.50218
3.01333,446.66368
3.01876,595.56981
3.02418,728.67027
3.02961,848.6024
3.03503,946.02598
3.04046,1023.68492
3.04589,1070.12852
3.05131,1099.88072
3.05674,1088.45884
3.06216,1059.59215
3.06759,993.50474
3.07302,908.91588
3.07844,796.8419
3.08387,663.04478
3.08929,512.35191
3.09472,352.04112
3.10015,188.45543
3.10557,24.60887
3.111,-130.7643
3.11642,-279.05043
3.12185,-412.19649
3.12728,-530.21242
3.1327,-634.91536
3.13813,-721.94576
3.14355,-795.76705
3.14898,-858.68557
3.15441,-911.01985
3.15983,-954.67995
3.16526,-991.55068
3.17068,-1021.51625
3.17611,-1047.28844
3.18154,-1069.00023
3.18696,-1086.98633
3.19239,-1101.69274
3.19781,-1114.23334
3.20324,-1125.21988
3.20867,-1134.84261
3.21409,-1143.00338
3.21952,-1150.23143
3.22494,-1156.57886
3.23037,-1162.43329
3.2358,-1167.4709
3.24122,-1171.87987
3.24665,-1175.88947
3.25208,-1179.50196
3.2575,-1182.74704
3.26293,-1185.64217
3.26835,-1188.16443
3.27378,-1190.47621
3.27921,-1192.59723
3.28463,-1194.58945
3.29006,-1196.24597
3.29548,-1197.56877
3.30091,-1198.64554
3.30634,-1199.56253
3.31176,-1200.28215
3.31719,-1200.98137
3.32261,-1201.51291
3.32804,-1201.92604
3.33347,-1201.92032
3.33889,-1201.77608
3.34432,-1201.47176
3.34974,-1200.92287
3.35517,-1200.18331
3.3606,-1199.29174
3.36602,-1198.06176
3.37145,-1196.4746
3.37687,-1194.29967
3.3823,-1191.65155
3.38773,-1188.32056
3.39315,-1184.77449
3.39858,-1180.26569
3.404,-1174.69211
3.40943,-1167.6684
3.41486,-1159.46213
3.42028,-1149.03449
3.42571,-1136.42813
3.43113,-1121.20037
3.43656,-1102.76558
3.44199,-1081.00038
3.44741,-1054.73381
3.45284,-1024.37181
3.45826,-989.85936
3.46369,-951.87114
3.46912,-909.72872
3.47454,-866.97615
3.47997,-822.32485
3.48539,-779.57906
3.49082,-738.52974
3.49625,-700.81966
3.50167,-668.90169
3.5071,-642.756
3.51252,-624.17507
3.51795,-611.17324
3.52338,-606.89449
3.5288,-608.45705
3.53423,-618.62923
3.53965,-636.53041
3.54508,-661.10024
3.55051,-693.33785
3.55593,-730.23867
3.56136,-772.36849
3.56678,-817.10158
3.57221,-862.7892
3.57764,-908.07643
3.58306,-951.05034
3.58849,-990.79711
3.59392,-1026.86238
3.59934,-1058.89537
3.60477,-1086.44937
3.61019,-1110.38561
3.61562,-1130.11676
3.62105,-1146.87072
3.62647,-1160.71115
3.6319,-1172.58974
3.63732,-1182.16889
3.64275,-1190.04576
3.64818,-1196.74753
3.6536,-1202.4957
3.65903,-1207.28572
3.66445,-1211.41153
3.66988,-1214.91388
3.67531,-1217.96357
3.68073,-1220.72174
3.68616,-1223.13018
3.69158,-1225.3508
3.69701,-1227.30181
3.70244,-1229.0261
3.70786,-1230.54795
3.71329,-1232.07914
3.71871,-1233.42089
3.72414,-1234.67408
3.72957,-1235.79001
3.73499,-1236.86483
3.74042,-1237.84968
3.74584,-1238.75532
3.75127,-1239.65856
3.7567,-1240.40089
3.76212,-1241.1352
3.76755,-1241.8704
3.77297,-1242.56906
3.7784,-1243.20071
3.78383,-1243.71464
3.78925,-1244.26435
3.79468,-1244.7893
3.8001,-1245.31473
3.80553,-1245.74945
3.81096,-1246.24656
3.81638,-1246.66045
3.82181,-1247.10555
3.82723,-1247.44185
3.83266,-1247.76206
3.83809,-1248.10929
3.84351,-1248.40297
3.84894,-1248.83041
3.85436,-1249.09896
3.85979,-1249.40526
3.86522,-1249.64599
3.87064,-1249.91055
3.87607,-1250.17647
3.88149,-1250.47769
3.88692,-1250.72428
3.89235,-1250.96379
3.89777,-1251.09529
3.9032,-1251.21723
3.90862,-1251.39968
3.91405,-1251.63954
3.91948,-1251.77333
3.9249,-1251.91606
3.93033,-1252.0571
3.93575,-1252.24234
3.94118,-1252.36463
3.94661,-1252.58145
3.95203,-1252.71466
3.95746,-1252.88073
3.96289,-1253.00132
3.96831,-1253.11478
3.97374,-1253.26525
3.97916,-1253.36594
3.98459,-1253.40628
3.99002,-1253.43571
3.99544,-1253.58604
4.00087,-1253.64858
4.00629,-1253.77349
4.01172,-1253.86419
4.01715,-1253.94696
4.02257,-1254.04454
4.028,-1254.13472
4.03342,-1254.23087
4.03885,-1254.30604
4.04428,-1254.31694
4.0497,-1254.32979
4.05513,-1254.38894
4.06055,-1254.59604
4.06598,-1254.62792
4.07141,-1254.67404
4.07683,-1254.62087
4.08226,-1254.61982
4.08768,-1254.69622
4.09311,-1254.77172
4.09854,-1254.84096
4.10396,-1254.81273
4.10939,-1254.92079
4.11481,-1254.97317
4.12024,-1255.03864
4.12567,-1255.04218
4.13109,-1255.10427
4.13652,-1255.11193
4.14194,-1255.10421
4.14737,-1255.09085
4.1528,-1255.09458
4.15822,-1255.13945
4.16365,-1255.14988
4.16907,-1255.14193
4.1745,-1255.11669
4.17993,-1255.14199
4.18535,-1255.08301
4.19078,-1255.0882
4.1962,-1255.07657
4.20163,-1255.07255
4.20706,-1255.05259
4.21248,-1255.01973
4.21791,-1254.95278
4.22333,-1254.92324
4.22876,-1254.83836
4.23419,-1254.91047
4.23961,-1254.89489
4.24504,-1254.78672
4.25046,-1254.63131
4.25589,-1254.57083
4.26132,-1254.5502
4.26674,-1254.43352
4.27217,-1254.40406
4.27759,-1254.40855
4.28302,-1254.45113
4.28845,-1254.34075
4.29387,-1254.29615
4.2993,-1254.26819
4.30472,-1254.27901
4.31015,-1254.1923
4.31558,-1254.05825
4.321,-1253.99182
4.32643,-1253.99967
4.33186,-1253.86994
4.33728,-1253.68585
4.34271,-1253.60445
4.34813,-1253.59259
4.35356,-1253.4915
4.35899,-1253.31778
4.36441,-1253.2866
4.36984,-1253.20911
4.37526,-1253.12072
4.38069,-1252.98864
4.38612,-1252.84771
4.39154,-1252.76731
4.39697,-1252.68967
4.40239,-1252.66384
4.40782,-1252.51401
4.41325,-1252.42919
4.41867,-1252.3501
4.4241,-1252.2855
4.42952,-1252.15334
4.43495,-1252.06184
4.44038,-1251.93649
4.4458,-1251.73613
4.45123,-1251.59523
4.45665,-1251.45263
4.46208,-1251.37285
4.46751,-1251.28482
4.47293,-1251.1844
4.47836,-1251.10466
4.48378,-1251.04773
4.48921,-1250.85815
4.49464,-1250.67935
4.50006,-1250.46263
4.50549,-1250.33444
4.51091,-1250.13859
4.51634,-1250.02625
4.52177,-1249.86154
4.52719,-1249.77706
4.53262,-1249.58964
4.53804,-1249.38467
4.54347,-1249.1389
4.5489,-1248.85662
4.55432,-1248.63702
4.55975,-1248.41501
4.56517,-1248.13478
4.5706,-1247.90683
4.57603,-1247.69063
4.58145,-1247.39286
4.58688,-1247.04301
4.5923,-1246.72792
4.59773,-1246.44317
4.60316,-1246.08864
4.60858,-1245.74428
4.61401,-1245.31607
4.61943,-1244.8859
4.62486,-1244.46482
4.63029,-1244.11419
4.63571,-1243.62252
4.64114,-1243.04335
4.64656,-1242.54334
4.65199,-1242.08556
4.65742,-1241.56678
4.66284,-1240.98318
4.66827,-1240.34543
4.67369,-1239.67443
4.67912,-1238.97434
4.68455,-1238.25922
4.68997,-1237.45853
4.6954,-1236.60591
4.70083,-1235.73927
4.70625,-1234.77779
4.71168,-1233.72827
4.7171,-1232.66611
4.72253,-1231.61662
4.72796,-1230.41981
4.73338,-1229.05495
4.73881,-1227.55521
4.74423,-1225.97611
4.74966,-1224.34064
4.75509,-1222.6218
4.76051,-1220.75512
4.76594,-1218.64922
4.77136,-1216.35673
4.77679,-1213.80073
4.78222,-1211.08786
4.78764,-1208.06958
4.79307,-1204.73748
4.79849,-1201.06247
4.80392,-1196.99738
4.80935,-1192.45122
4.81477,-1187.18203
4.8202,-1181.39563
4.82562,-1174.74717
4.83105,-1167.20192
4.83648,-1158.49634
4.8419,-1148.57585
4.84733,-1136.83048
4.85275,-1123.30391
4.85818,-1107.3405
4.86361,-1088.92362
4.86903,-1067.07155
4.87446,-1041.98638
4.87988,-1011.92638
4.88531,-977.15667
4.89074,-936.93611
4.89616,-890.9854
4.90159,-838.08031
4.90701,-779.37496
4.91244,-713.433
4.91787,-641.39345
4.92329,-565.10317
4.92872,-484.38405
4.93414,-402.67549
4.93957,-320.90456
4.945,-241.76308
4.95042,-167.97756
4.95585,-102.02309
4.96127,-44.66115
4.9667,1.79686
4.97213,35.17515
4.97755,57.96592
4.98298,64.61717
4.9884,60.93089
4.99383,41.5858
4.99926,10.68919
5.00468,-33.74269
5.01011,-88.67214
5.01553,-154.44313
5.02096,-227.99526
5.02639,-306.47341
5.03181,-388.89443
5.03724,-470.82399
5.04267,-552.41591
5.04809,-629.85341
5.05352,-702.23311
5.05894,-769.1202
5.06437,-829.14534
5.0698,-882.68309
5.07522,-930.0732
5.08065,-971.26488
5.08607,-1006.73986
5.0915,-1037.46953
5.09693,-1063.69908
5.10235,-1086.08303
5.10778,-1105.15119
5.1132,-1121.45198
5.11863,-1135.35457
5.12406,-1147.37857
5.12948,-1157.65959
5.13491,-1166.57173
5.14033,-1174.35903
5.14576,-1181.14788
5.15119,-1187.0427
5.15661,-1192.16573
5.16204,-1196.84362
5.16746,-1201.02123
5.17289,-1204.77423
5.17832,-1208.09357
5.18374,-1211.14165
5.18917,-1213.8805
5.19459,-1216.41015
5.20002,-1218.65823
5.20545,-1220.67667
5.21087,-1222.5995
5.2163,-1224.28835
5.22172,-1225.82495
5.22715,-1227.26381
5.23258,-1228.64695
5.238,-1229.89511
5.24343,-1231.01467
5.24885,-1231.99117
5.25428,-1232.95848
5.25971,-1233.94625
5.26513,-1234.79245
5.27056,-1235.5829
5.27598,-1236.33783
5.28141,-1236.9748
5.28684,-1237.42768
5.29226,-1237.94711
5.29769,-1238.57388
5.30311,-1239.09461
5.30854,-1239.56742
5.31397,-1240.08817
5.31939,-1240.43154
5.32482,-1240.76036
5.33024,-1241.07062
5.33567,-1241.49421
5.3411,-1241.80415
5.34652,-1241.98011
5.35195,-1242.05565
5.35737,-1242.17147
5.3628,-1242.3547
5.36823,-1242.53664
5.37365,-1242.6566
5.37908,-1242.76412
5.3845,-1242.96625
5.38993,-1243.07322
5.39536,-1243.10887
5.40078,-1243.13594
5.40621,-1243.23753
5.41164,-1243.18225
5.41706,-1243.10801
5.42249,-1242.98516
5.42791,-1242.8955
5.43334,-1242.78094
5.43877,-1242.7443
5.44419,-1242.64749
5.44962,-1242.49695
5.45504,-1242.30558
5.46047,-1242.22425
5.4659,-1242.09454
5.47132,-1241.96546
5.47675,-1241.68615
5.48217,-1241.35736
5.4876,-1240.98494
5.49303,-1240.64391
5.49845,-1240.27868
5.50388,-1239.94378
5.5093,-1239.58317
5.51473,-1239.17549
5.52016,-1238.75859
5.52558,-1238.29119
5.53101,-1237.75057
5.53643,-1237.13986
5.54186,-1236.51499
5.54729,-1235.87243
5.55271,-1235.19657
5.55814,-1234.52968
5.56356,-1233.76896
5.56899,-1232.89151
5.57442,-1231.95404
5.57984,-1230.94586
5.58527,-1229.88637
5.59069,-1228.84373
5.59612,-1227.58508
5.60155,-1226.14342
5.60697,-1224.68661
5.6124,-1223.17678
5.61782,-1221.4735
5.62325,-1219.57037
5.62868,-1217.5415
5.6341,-1215.32242
5.63953,-1212.8276
5.64495,-1210.20107
5.65038,-1207.29248
5.65581,-1204.09548
5.66123,-1200.52602
5.66666,-1196.51439
5.67208,-1192.1113
5.67751,-1187.16632
5.68294,-1181.67931
5.68836,-1175.351
5.69379,-1168.26451
5.69921,-1160.12006
5.70464,-1150.83522
5.71007,-1139.98145
5.71549,-1127.54514
5.72092,-1112.92237
5.72634,-1096.26918
5.73177,-1076.47438
5.7372,-1053.64843
5.74262,-1027.10439
5.74805,-996.57952
5.75347,-960.94844
5.7589,-920.93392
5.76433,-875.62984
5.76975,-825.23299
5.77518,-770.03896
5.78061,-710.23586
5.78603,-647.26967
5.79146,-581.85097
5.79688,-515.81008
5.80231,-450.69881
5.80774,-389.8395
5.81316,-332.92525
5.81859,-283.27712
5.82401,-241.96681
5.82944,-208.59084
5.83487,-186.19948
5.84029,-172.74819
5.84572,-170.95449
5.85114,-178.27053
5.85657,-198.07558
5.862,-225.99282
5.86742,-265.43141
5.87285,-312.05843
5.87827,-366.04982
5.8837,-426.24391
5.88913,-489.96517
5.89455,-555.62166
5.89998,-620.89455
5.9054,-684.56435
5.91083,-744.74276
5.91626,-801.30556
5.92168,-852.75188
5.92711,-899.17464
5.93253,-940.54283
5.93796,-976.52993
5.94339,-1007.674
5.94881,-1034.42376
5.95424,-1057.14263
5.95966,-1076.12508
5.96509,-1092.14817
5.97052,-1105.04369
5.97594,-1115.67229
5.98137,-1123.98876
5.98679,-1130.30378
5.99222,-1134.75975
5.99765,-1137.7508
6.00307,-1139.14972
6.0085,-1139.16948
6.01392,-1137.6489
6.01935,-1134.73014
6.02478,-1130.46572
6.0302,-1125.22219
6.03563,-1118.80922
6.04105,-1111.43996
6.04648,-1103.51288
6.05191,-1094.93653
6.05733,-1086.17324
6.06276,-1077.36559
6.06818,-1069.12178
6.07361,-1061.58382
6.07904,-1054.98006
6.08446,-1049.64727
6.08989,-1045.62596
6.09531,-1043.27822
6.10074,-1042.27471
6.10617,-1043.39498
6.11159,-1045.68517
6.11702,-1049.8113
6.12245,-1055.42241
6.12787,-1062.68523
6.1333,-1071.28292
6.13872,-1081.08518
6.14415,-1091.83931
6.14958,-1103.18921
6.155,-1114.88646
6.16043,-1126.50292
6.16585,-1138.05339
6.17128,-1149.15895
6.17671,-1159.56415
6.18213,-1169.22493
6.18756,-1178.172
6.19298,-1186.31833
6.19841,-1193.66738
6.20384,-1200.05324
6.20926,-1205.76154
6.21469,-1210.92263
6.22011,-1215.44783
6.22554,-1219.43899
6.23097,-1222.90477
6.23639,-1225.95974
6.24182,-1228.70043
6.24724,-1231.14283
6.25267,-1233.24434
6.2581,-1235.08161
6.26352,-1236.74929
6.26895,-1238.28394
6.27437,-1239.58164
6.2798,-1240.82414
6.28523,-1241.89677
6.29065,-1242.87731
6.29608,-1243.75523
6.3015,-1244.62941
6.30693,-1245.37581
6.31236,-1246.1013
6.31778,-1246.73167
6.32321,-1247.35377
6.32863,-1247.87315
6.33406,-1248.41682
6.33949,-1248.98934
6.34491,-1249.54297
6.35034,-1249.97258
6.35576,-1250.36186
6.36119,-1250.69119
6.36662,-1251.08856
6.37204,-1251.38842
6.37747,-1251.80569
6.38289,-1252.1156
6.38832,-1252.3372
6.39375,-1252.50916
6.39917,-1252.81074
6.4046,-1253.06899
6.41002,-1253.32651
6.41545,-1253.50267
6.42088,-1253.68788
6.4263,-1253.85973
6.43173,-1254.02272
6.43715,-1254.21094
6.44258,-1254.35238
6.44801,-1254.56213
6.45343,-1254.74568
6.45886,-1254.94079
6.46428,-1255.03747
6.46971,-1255.13122
6.47514,-1255.24566
6.48056,-1255.41272
6.48599,-1255.55509
6.49142,-1255.68145
6.49684,-1255.72447
6.50227,-1255.77793
6.50769,-1255.89411
6.51312,-1255.96099
6.51855,-1256.04096
6.52397,-1256.12599
6.5294,-1256.2405
6.53482,-1256.32109
6.54025,-1256.366
6.54568,-1256.44052
6.5511,-1256.48703
6.55653,-1256.54376
6.56195,-1256.53453
6.56738,-1256.58876
6.57281,-1256.61285
6.57823,-1256.68129
6.58366,-1256.74865
6.58908,-1256.86384
6.59451,-1256.84765
6.59994,-1256.81451
6.60536,-1256.80329
6.61079,-1256.8417
6.61621,-1256.82679
6.62164,-1256.84136
6.62707,-1256.9117
6.63249,-1256.91156
6.63792,-1256.89269
6.64334,-1256.8836
6.64877,-1256.89492
6.6542,-1256.8413
6.65962,-1256.82434
6.66505,-1256.833
6.67047,-1256.83647
6.6759,-1256.78691
6.68133,-1256.71127
6.68675,-1256.59047
6.69218,-1256.51784
6.6976,-1256.53147
6.70303,-1256.53905
6.70846,-1256.46962
6.71388,-1256.37954
6.71931,-1256.34127
6.72473,-1256.27734
6.73016,-1256.24251
6.73559,-1256.13588
6.74101,-1256.0297
6.74644,-1255.87828
6.75186,-1255.71306
6.75729,-1255.54204
6.76272,-1255.43518
6.76814,-1255.35363
6.77357,-1255.21792
6.77899,-1255.02112
6.78442,-1254.7984
6.78985,-1254.58928
6.79527,-1254.37934
6.8007,-1254.19059
6.80612,-1253.96583
6.81155,-1253.74031
6.81698,-1253.48332
6.8224,-1253.13919
6.82783,-1252.76522
6.83325,-1252.36691
6.83868,-1251.96482
6.84411,-1251.53054
6.84953,-1250.9786
6.85496,-1250.37746
6.86039,-1249.75256
6.86581,-1249.10837
6.87124,-1248.3794
6.87666,-1247.61207
6.88209,-1246.70661
6.88752,-1245.74996
6.89294,-1244.7027
6.89837,-1243.46228
6.90379,-1241.89946
6.90922,-1240.14234
6.91465,-1238.2582
6.92007,-1236.09905
6.9255,-1233.51271
6.93092,-1230.41738
6.93635,-1226.85143
6.94178,-1222.71283
6.9472,-1217.82518
6.95263,-1211.98724
6.95805,-1205.39557
6.96348,-1197.76487
6.96891,-1188.98954
6.97433,-1179.17981
6.97976,-1168.36197
6.98518,-1156.58335
6.99061,-1143.88115
6.99604,-1130.78765
7.00146,-1117.43291
7.00689,-1104.47811
7.01231,-1091.85732
7.01774,-1080.35636
7.02317,-1070.02339
7.02859,-1061.09508
7.03402,-1054.23149
7.03944,-1049.12731
7.04487,-1046.2574
7.0503,-1045.25029
7.05572,-1046.72002
7.06115,-1049.80812
7.06657,-1055.42577
7.072,-1062.67977
7.07743,-1071.83956
7.08285,-1082.56745
7.08828,-1094.41054
7.0937,-1107.0994
7.09913,-1120.13547
7.10456,-1133.27137
7.10998,-1146.10044
7.11541,-1158.49483
7.12083,-1169.91362
7.12626,-1180.39275
7.13169,-1189.83094
7.13711,-1198.1328
7.14254,-1205.493
7.14796,-1211.91704
7.15339,-1217.39344
7.15882,-1222.05019
7.16424,-1225.96664
7.16967,-1229.24029
7.17509,-1232.15071
7.18052,-1234.66989
7.18595,-1236.82254
7.19137,-1238.61019
7.1968,-1240.1765
7.20222,-1241.4084
7.20765,-1242.51558
7.21308,-1243.48445
7.2185,-1244.36177
7.22393,-1245.08569
7.22936,-1245.70865
7.23478,-1246.2246
7.24021,-1246.75229
7.24563,-1247.20332
7.25106,-1247.6801
7.25649,-1248.04478
7.26191,-1248.34989
7.26734,-1248.57921
7.27276,-1248.79306
7.27819,-1248.97556
7.28362,-1249.07215
7.28904,-1249.08164
7.29447,-1249.12542
7.29989,-1249.15527
7.30532,-1249.21398
7.31075,-1249.2313
7.31617,-1249.24562
7.3216,-1249.22381
7.32702,-1249.17197
7.33245,-1249.04908
7.33788,-1248.88056
7.3433,-1248.71421
7.34873,-1248.50715
7.35415,-1248.3722
7.35958,-1248.18877
7.36501,-1247.99473
7.37043,-1247.69903
7.37586,-1247.35304
7.38128,-1247.03057
7.38671,-1246.73223
7.39214,-1246.35471
7.39756,-1245.92057
7.40299,-1245.4477
7.40841,-1244.99122
7.41384,-1244.50248
7.41927,-1243.99305
7.42469,-1243.39095
7.43012,-1242.69665
7.43554,-1241.92176
7.44097,-1241.07608
7.4464,-1240.28165
7.45182,-1239.37443
7.45725,-1238.38672
7.46267,-1237.25724
7.4681,-1236.09343
7.47353,-1234.7638
7.47895,-1233.34854
7.48438,-1231.76831
7.4898,-1229.99163
7.49523,-1227.99678
7.50066,-1225.90639
7.50608,-1223.6108
7.51151,-1221.07071
7.51693,-1218.14607
7.52236,-1214.90826
7.52779,-1211.25714
7.53321,-1207.15322
7.53864,-1202.57616
7.54406,-1197.51009
7.54949,-1191.7816
7.55492,-1185.26551
7.56034,-1177.92214
7.56577,-1169.63485
7.5712,-1160.31176
7.57662,-1149.71071
7.58205,-1137.80852
7.58747,-1124.53002
7.5929,-1109.8524
7.59833,-1093.40665
7.60375,-1075.75786
7.60918,-1056.37749
7.6146,-1035.98629
7.62003,-1014.29378
7.62546,-992.03984
7.63088,-969.01653
7.63631,-946.48696
7.64173,-924.03392
7.64716,-902.94451
7.65259,-883.63817
7.65801,-866.39092
7.66344,-851.81465
7.66886,-839.84029
7.67429,-831.19912
7.67972,-825.7343
7.68514,-823.99544
7.69057,-825.22536
7.69599,-830.11446
7.70142,-838.04781
7.70685,-848.86415
7.71227,-862.627
7.7177,-878.47786
7.72312,-896.22985
7.72855,-915.14516
7.73398,-934.77605
7.7394,-954.35918
7.74483,-973.53163
7.75025,-991.67812
7.75568,-1008.40944
7.76111,-1023.54821
7.76653,-1036.46169
7.77196,-1047.2834
7.77738,-1055.81475
7.78281,-1062.04818
7.78824,-1065.69905
7.79366,-1067.31517
7.79909,-1066.25673
7.80451,-1063.13787
7.80994,-1057.89208
7.81537,-1050.90407
7.82079,-1042.15328
7.82622,-1032.35268
7.83164,-1021.5208
7.83707,-1010.32582
7.8425,-999.08217
7.84792,-988.1454
7.85335,-978.18676
7.85877,-969.48967
7.8642,-962.38185
7.86963,-957.61769
7.87505,-954.71904
7.88048,-953.43828
7.8859,-954.47188
7.89133,-958.04933
7.89676,-963.73787
7.90218,-971.93795
7.90761,-981.90874
7.91303,-993.85115
7.91846,-1007.26216
7.92389,-1022.15569
7.92931,-1037.64354
7.93474,-1053.79763
7.94017,-1069.97255
7.94559,-1085.81458
7.95102,-1101.13694
7.95644,-1115.56221
7.96187,-1129.23349
7.9673,-1141.87554
7.97272,-1153.40413
7.97815,-1163.65842
7.98357,-1172.97603
7.989,-1181.21183
7.99443,-1188.5399
7.99985,-1194.93297
8.00528,-1200.61464
8.0107,-1205.60288
8.01613,-1210.0692
8.02156,-1213.97325
8.02698,-1217.4766
8.03241,-1220.50838
8.03783,-1223.21816
8.04326,-1225.60549
8.04869,-1227.80076
8.05411,-1229.78817
8.05954,-1231.51219
8.06496,-1233.00648
8.07039,-1234.32548
8.07582,-1235.58802
8.08124,-1236.73971
8.08667,-1237.84153
8.09209,-1238.82449
8.09752,-1239.67256
8.10295,-1240.40941
8.10837,-1241.08699
8.1138,-1241.73248
8.11922,-1242.38382
8.12465,-1243.01042
8.13008,-1243.60794
8.1355,-1244.0633
8.14093,-1244.4788
8.14635,-1244.84346
8.15178,-1245.20895
8.15721,-1245.53469
8.16263,-1245.81536
8.16806,-1246.10717
8.17348,-1246.34451
8.17891,-1246.54959
8.18434,-1246.73407
8.18976,-1246.93722
8.19519,-1247.14874
8.20061,-1247.3613
8.20604,-1247.51184
8.21147,-1247.66288
8.21689,-1247.74352
8.22232,-1247.78902
8.22774,-1247.83821
8.23317,-1247.90203
8.2386,-1247.98425
8.24402,-1247.95584
8.24945,-1247.95217
8.25487,-1247.94084
8.2603,-1247.90986
8.26573,-1247.9138
8.27115,-1247.85154
8.27658,-1247.77729
8.282,-1247.6883
8.28743,-1247.58026
8.29286,-1247.50656
8.29828,-1247.34887
8.30371,-1247.18754
8.30914,-1246.97585
8.31456,-1246.73294
8.31999,-1246.45837
8.32541,-1246.20578
8.33084,-1245.97199
8.33627,-1245.76519
8.34169,-1245.50408
8.34712,-1245.18116
8.35254,-1244.77227
8.35797,-1244.32717
8.3634,-1243.88037
8.36882,-1243.39257
8.37425,-1242.85899
8.37967,-1242.26676
8.3851,-1241.6992
8.39053,-1241.0167
8.39595,-1240.22625
8.40138,-1239.39932
8.4068,-1238.62114
8.41223,-1237.7219
8.41766,-1236.64289
8.42308,-1235.5176
8.42851,-1234.27383
8.43393,-1232.90399
8.43936,-1231.35833
8.44479,-1229.70857
8.45021,-1227.87848
8.45564,-1225.92934
8.46106,-1223.74388
8.46649,-1221.29831
8.47192,-1218.5866
8.47734,-1215.56787
8.48277,-1212.1931
8.48819,-1208.48289
8.49362,-1204.30306
8.49905,-1199.6071
8.50447,-1194.22254
8.5099,-1188.2284
8.51532,-1181.51525
8.52075,-1173.96178
8.52618,-1165.52893
8.5316,-1156.13684
8.53703,-1145.75019
8.54245,-1133.98348
8.54788,-1120.99683
8.55331,-1106.69905
8.55873,-1091.53864
8.56416,-1075.25188
8.56958,-1058.07601
8.57501,-1039.88137
8.58044,-1021.31353
8.58586,-1002.37026
8.59129,-983.86458
8.59671,-966.09066
8.60214,-949.25286
8.60757,-933.9915
8.61299,-920.70394
8.61842,-909.70009
8.62384,-900.96788
8.62927,-895.30419
8.6347,-892.00017
8.64012,-892.02642
8.64555,-894.46465
8.65098,-900.04842
8.6564,-908.16423
8.66183,-918.96373
8.66725,-931.83736
8.67268,-946.82653
8.67811,-963.4767
8.68353,-981.18126
8.68896,-999.68184
8.69438,-1018.30062
8.69981,-1036.8441
8.70524,-1054.95021
8.71066,-1072.33034
8.71609,-1088.74526
8.72151,-1104.08834
8.72694,-1118.25013
8.73237,-1131.19779
8.73779,-1143.03516
8.74322,-1153.63652
8.74864,-1163.22786
8.75407,-1171.76911
8.7595,-1179.38358
8.76492,-1186.05214
8.77035,-1192.02036
8.77577,-1197.30545
8.7812,-1202.06317
8.78663,-1206.18447
8.79205,-1209.88098
8.79748,-1213.1872
8.8029,-1216.15808
8.80833,-1218.76307
8.81376,-1221.02858
8.81918,-1223.01012
8.82461,-1224.9001
8.83003,-1226.55426
8.83546,-1228.07624
8.84089,-1229.37517
8.84631,-1230.52811
8.85174,-1231.45645
8.85716,-1232.34871
8.86259,-1233.13861
8.86802,-1233.78524
8.87344,-1234.36206
8.87887,-1234.82328
8.88429,-1235.19277
8.88972,-1235.53913
8.89515,-1235.82395
8.90057,-1236.00608
8.906,-1236.08441
8.91142,-1236.09246
8.91685,-1236.0583
8.92228,-1235.90287
8.9277,-1235.67011
8.93313,-1235.29396
8.93855,-1234.94003
8.94398,-1234.52484
8.94941,-1234.01936
8.95483,-1233.3321
8.96026,-1232.56738
8.96568,-1231.65302
8.97111,-1230.63781
8.97654,-1229.45467
8.98196,-1228.15628
8.98739,-1226.667
8.99281,-1224.97829
8.99824,-1223.06264
9.00367,-1220.9254
9.00909,-1218.41043
9.01452,-1215.67639
9.01995,-1212.54717
9.02537,-1208.9812
9.0308,-1204.89751
9.03622,-1200.27356
9.04165,-1194.90512
9.04708,-1188.86568
9.0525,-1182.03133
9.05793,-1174.26178
9.06335,-1165.47148
9.06878,-1155.61081
9.07421,-1144.68106
9.07963,-1132.6268
9.08506,-1119.43329
9.09048,-1105.09574
9.09591,-1089.92987
9.10134,-1073.89058
9.10676,-1057.78075
9.11219,-1041.6704
9.11761,-1025.34139
9.12304,-1009.15303
9.12847,-994.40898
9.13389,-980.87661
9.13932,-969.17379
9.14474,-959.87331
9.15017,-952.44771
9.1556,-947.57344
9.16102,-945.08391
9.16645,-945.68477
9.17187,-948.69133
9.1773,-954.4439
9.18273,-962.13582
9.18815,-972.29351
9.19358,-984.31319
9.199,-998.24037
9.20443,-1013.55806
9.20986,-1029.74056
9.21528,-1046.33934
9.22071,-1062.98061
9.22613,-1079.61066
9.23156,-1095.41503
9.23699,-1110.64281
9.24241,-1124.85796
9.24784,-1138.07454
9.25326,-1149.99343
9.25869,-1160.85671
9.26412,-1170.55915
9.26954,-1179.32065
9.27497,-1187.10564
9.28039,-1193.94721
9.28582,-1200.01282
9.29125,-1205.43712
9.29667,-1210.24282
9.3021,-1214.44602
9.30752,-1218.14867
9.31295,-1221.46633
9.31838,-1224.36238
9.3238,-1226.96207
9.32923,-1229.26837
9.33465,-1231.36538
9.34008,-1233.18467
9.34551,-1234.92109
9.35093,-1236.52507
9.35636,-1237.97615
9.36178,-1239.21289
9.36721,-1240.43915
9.37264,-1241.54213
9.37806,-1242.51625
9.38349,-1243.32294
9.38892,-1244.11729
9.39434,-1244.86896
9.39977,-1245.58827
9.40519,-1246.24239
9.41062,-1246.81983
9.41605,-1247.3585
9.42147,-1247.87025
9.4269,-1248.38211
9.43232,-1248.86232
9.43775,-1249.31132
9.44318,-1249.69093
9.4486,-1250.03524
9.45403,-1250.39245
9.45945,-1250.69074
9.46488,-1250.97066
9.47031,-1251.21991
9.47573,-1251.46486
9.48116,-1251.74514
9.48658,-1251.99314
9.49201,-1252.19074
9.49744,-1252.34189
9.50286,-1252.53537
9.50829,-1252.72513
9.51371,-1252.8828
9.51914,-1253.05484
9.52457,-1253.2302
9.52999,-1253.35365
9.53542,-1253.44293
9.54084,-1253.5066
9.54627,-1253.59712
9.5517,-1253.68432
9.55712,-1253.73834
9.56255,-1253.80098
9.56797,-1253.9167
9.5734,-1253.9976
9.57883,-1254.04616
9.58425,-1254.09803
9.58968,-1254.1664
9.5951,-1254.19855
9.60053,-1254.23847
9.60596,-1254.23384
9.61138,-1254.22566
9.61681,-1254.23837
9.62223,-1254.23198
9.62766,-1254.17767
9.63309,-1254.14984
9.63851,-1254.09548
9.64394,-1254.054
9.64936,-1254.05556
9.65479,-1254.05342
9.66022,-1254.04987
9.66564,-1253.98551
9.67107,-1253.89901
9.67649,-1253.75231
9.68192,-1253.64837
9.68735,-1253.56126
9.69277,-1253.43029
9.6982,-1253.30326
9.70362,-1253.15908
9.70905,-1252.96513
9.71448,-1252.74486
9.7199,-1252.53904
9.72533,-1252.37998
9.73075,-1252.18184
9.73618,-1251.92232
9.74161,-1251.63024
9.74703,-1251.30287
9.75246,-1250.99289
9.75789,-1250.61799
9.76331,-1250.28541
9.76874,-1249.86129
9.77416,-1249.45856
9.77959,-1248.9199
9.78502,-1248.29852
9.79044,-1247.64259
9.79587,-1247.01688
9.80129,-1246.24723
9.80672,-1245.40087
9.81215,-1244.49882
9.81757,-1243.54267
9.823,-1242.43492
9.82842,-1241.16429
9.83385,-1239.77278
9.83928,-1238.30006
9.8447,-1236.60887
9.85013,-1234.70388
9.85555,-1232.57533
9.86098,-1230.23477
9.86641,-1227.67626
9.87183,-1224.88948
9.87726,-1221.81865
9.88268,-1218.44609
9.88811,-1214.76159
9.89354,-1210.77155
9.89896,-1206.55078
9.90439,-1202.04987
9.90981,-1197.33551
9.91524,-1192.43509
9.92067,-1187.43454
9.92609,-1182.38301
9.93152,-1177.54715
9.93694,-1172.8673
9.94237,-1168.37732
9.9478,-1164.24298
9.95322,-1160.61934
9.95865,-1157.56951
9.96407,-1155.21987
9.9695,-1153.61963
9.97493,-1152.66127
9.98035,-1152.49013
9.98578,-1152.94106
9.9912,-1154.22119
9.99663,-1156.21459
10.00206,-1158.84854
10.00748,-1161.99688
10.01291,-1165.70678
10.01833,-1169.83287
10.02376,-1174.29579
10.02919,-1179.09243
10.03461,-1183.89986
10.04004,-1188.64064
10.04546,-1193.26094
10.05089,-1197.78197
10.05632,-1202.1158
10.06174,-1206.19931
10.06717,-1209.98399
10.07259,-1213.43653
10.07802,-1216.6443
10.08345,-1219.53916
10.08887,-1222.09462
10.0943,-1224.37432
10.09973,-1226.36167
10.10515,-1228.1666
10.11058,-1229.75051
10.116,-1231.15757
10.12143,-1232.34896
10.12686,-1233.39117
10.13228,-1234.22357
10.13771,-1234.91086
10.14313,-1235.47309
10.14856,-1235.95845
10.15399,-1236.31607
10.15941,-1236.54598
10.16484,-1236.65819
10.17026,-1236.70584
10.17569,-1236.6589
10.18112,-1236.51318
10.18654,-1236.29653
10.19197,-1235.92283
10.19739,-1235.50369
10.20282,-1234.97103
10.20825,-1234.41303
10.21367,-1233.72717
10.2191,-1232.9359
10.22452,-1231.98679
10.22995,-1230.9614
10.23538,-1229.8109
10.2408,-1228.50775
10.24623,-1227.03854
10.25165,-1225.38922
10.25708,-1223.58703
10.26251,-1221.60262
10.26793,-1219.36798
10.27336,-1216.8866
10.27878,-1214.0876
10.28421,-1211.06745
10.28964,-1207.69352
10.29506,-1203.94652
10.30049,-1199.72068
10.30591,-1195.03833
10.31134,-1189.81185
10.31677,-1184.02898
10.32219,-1177.61769
10.32762,-1170.53385
10.33304,-1162.65665
10.33847,-1154.07961
10.3439,-1144.70018
10.34932,-1134.49945
10.35475,-1123.46912
10.36017,-1111.71147
10.3656,-1099.33988
10.37103,-1086.36934
10.37645,-1073.09401
10.38188,-1059.52382
10.3873,-1046.05712
10.39273,-1032.85747
10.39816,-1020.1252
10.40358,-1008.18764
10.40901,-997.49904
10.41443,-988.06261
10.41986,-980.234
10.42529,-974.07729
10.43071,-969.64064
10.43614,-966.92348
10.44156,-966.02321
10.44699,-966.85961
10.45242,-969.4442
10.45784,-973.77446
10.46327,-979.4569
10.4687,-986.45418
10.47412,-994.35527
10.47955,-1002.91194
10.48497,-1011.88347
10.4904,-1020.96495
10.49583,-1029.85402
10.50125,-1038.34108
10.50668,-1046.15224
10.5121,-1053.11074
10.51753,-1059.29558
10.52296,-1064.66875
10.52838,-1069.14144
10.53381,-1072.82079
10.53923,-1075.84731
10.54466,-1078.33219
10.55009,-1080.42719
10.55551,-1082.26612
10.56094,-1084.11864
10.56636,-1086.13378
10.57179,-1088.29253
10.57722,-1090.79068
10.58264,-1093.6933
10.58807,-1097.06436
10.59349,-1100.91411
10.59892,-1105.42926
10.60435,-1110.4921
10.60977,-1116.06989
10.6152,-1122.16808
10.62062,-1128.59638
10.62605,-1135.37485
10.63148,-1142.32236
10.6369,-1149.33727
10.64233,-1156.29482
10.64775,-1163.2285
10.65318,-1169.89829
10.65861,-1176.31879
10.66403,-1182.42929
10.66946,-1188.17865
10.67488,-1193.52507
10.68031,-1198.47188
10.68574,-1202.986
10.69116,-1207.09967
10.69659,-1210.87963
10.70201,-1214.33924
10.70744,-1217.4729
10.71287,-1220.3243
10.71829,-1222.95091
10.72372,-1225.30109
10.72914,-1227.41423
10.73457,-1229.31864
10.74,-1231.05406
10.74542,-1232.62964
10.75085,-1234.05875
10.75627,-1235.33848
10.7617,-1236.50715
10.76713,-1237.55049
10.77255,-1238.53399
10.77798,-1239.39599
10.7834,-1240.22767
10.78883,-1240.9928
10.79426,-1241.65964
10.79968,-1242.25999
10.80511,-1242.79996
10.81053,-1243.34172
10.81596,-1243.84648
10.82139,-1244.2845
10.82681,-1244.64435
10.83224,-1244.99072
10.83767,-1245.27305
10.84309,-1245.51924
10.84852,-1245.75695
10.85394,-1245.96743
10.85937,-1246.12174
10.8648,-1246.23256
10.87022,-1246.38745
10.87565,-1246.52294
10.88107,-1246.56522
10.8865,-1246.55651
10.89193,-1246.58368
10.89735,-1246.58
10.90278,-1246.5182
10.9082,-1246.42063
10.91363,-1246.29542
10.91906,-1246.164
10.92448,-1245.98983
10.92991,-1245.81311
10.93533,-1245.54803
10.94076,-1245.23455
10.94619,-1244.90012
10.95161,-1244.53012
10.95704,-1244.08807
10.96246,-1243.56697
10.96789,-1243.07133
10.97332,-1242.45294
10.97874,-1241.7252
10.98417,-1240.92
10.98959,-1239.94283
10.99502,-1238.92021
11.00045,-1237.81649
11.00587,-1236.5354
11.0113,-1235.0495
11.01672,-1233.48262
11.02215,-1231.6718
11.02758,-1229.61852
11.033,-1227.25625
11.03843,-1224.71541
11.04385,-1221.79018
11.04928,-1218.54293
11.05471,-1214.86388
11.06013,-1210.79406
11.06556,-1206.22571
11.07098,-1201.26039
11.07641,-1195.79959
11.08184,-1189.963
11.08726,-1183.71846
11.09269,-1177.1492
11.09811,-1170.22827
11.10354,-1163.14312
11.10897,-1155.98844
11.11439,-1149.03511
11.11982,-1142.33518
11.12524,-1136.0399
11.13067,-1130.30257
11.1361,-1125.29642
11.14152,-1121.11914
11.14695,-1117.95716
11.15237,-1115.87363
11.1578,-1114.74443
11.16323,-1114.82717
11.16865,-1115.86307
11.17408,-1118.05553
11.17951,-1121.2694
11.18493,-1125.54947
11.19036,-1130.55292
11.19578,-1136.34212
11.20121,-1142.65825
11.20664,-1149.43691
11.21206,-1156.50814
11.21749,-1163.53557
11.22291,-1170.55576
11.22834,-1177.34336
11.23377,-1183.97306
11.23919,-1190.09926
11.24462,-1195.95844
11.25004,-1201.22457
11.25547,-1206.08543
11.2609,-1210.48612
11.26632,-1214.55429
11.27175,-1218.17774
11.27717,-1221.35339
11.2826,-1224.12397
11.28803,-1226.59371
11.29345,-1228.79036
11.29888,-1230.69746
11.3043,-1232.36178
11.30973,-1233.80478
11.31516,-1235.13447
11.32058,-1236.29296
11.32601,-1237.1947
11.33143,-1237.87294
11.33686,-1238.52684
11.34229,-1239.07905
11.34771,-1239.49435
11.35314,-1239.84316
11.35856,-1240.08596
11.36399,-1240.26924
11.36942,-1240.31289
11.37484,-1240.23434
11.38027,-1240.07196
11.38569,-1239.85673
11.39112,-1239.5986
11.39655,-1239.19958
11.40197,-1238.67687
11.4074,-1238.03567
11.41282,-1237.28202
11.41825,-1236.42762
11.42368,-1235.48337
11.4291,-1234.38584
11.43453,-1233.1388
11.43995,-1231.78971
11.44538,-1230.22283
11.45081,-1228.42942
11.45623,-1226.46988
11.46166,-1224.42913
11.46708,-1222.16956
11.47251,-1219.65391
11.47794,-1216.8594
11.48336,-1213.90661
11.48879,-1210.7534
11.49421,-1207.38507
11.49964,-1203.85996
11.50507,-1200.15828
11.51049,-1196.35399
11.51592,-1192.44786
11.52134,-1188.5246
11.52677,-1184.6523
11.5322,-1180.89075
11.53762,-1177.25656
11.54305,-1173.83675
11.54848,-1170.74535
11.5539,-1167.93199
11.55933,-1165.51335
11.56475,-1163.46009
11.57018,-1161.78876
11.57561,-1160.45958
11.58103,-1159.61359
11.58646,-1159.14913
11.59188,-1159.11855
11.59731,-1159.41358
11.60274,-1160.00222
11.60816,-1160.80864
11.61359,-1161.7681
11.61901,-1162.79337
11.62444,-1163.87075
11.62987,-1164.91724
11.63529,-1165.84766
11.64072,-1166.62253
11.64614,-1167.25295
11.65157,-1167.65236
11.657,-1167.93148
11.66242,-1168.0345
11.66785,-1168.19809
11.67327,-1168.28626
11.6787,-1168.49677
11.68413,-1168.79895
11.68955,-1169.31879
11.69498,-1170.0226
11.7004,-1170.97388
11.70583,-1172.23842
11.71126,-1173.74433
11.71668,-1175.56101
11.72211,-1177.73262
11.72753,-1180.33532
11.73296,-1183.23186
11.73839,-1186.40313
11.74381,-1189.74126
11.74924,-1193.29746
11.75466,-1196.97202
11.76009,-1200.71392
11.76552,-1204.4491
11.77094,-1208.12423
11.77637,-1211.69886
11.78179,-1215.15801
11.78722,-1218.49786
11.79265,-1221.5902
11.79807,-1224.43185
11.8035,-1227.13239
11.80892,-1229.61871
11.81435,-1231.89496
11.81978,-1233.92817
11.8252,-1235.8345
11.83063,-1237.58722
11.83605,-1239.18602
11.84148,-1240.54166
11.84691,-1241.80138
11.85233,-1242.87658
11.85776,-1243.87168
11.86318,-1244.81269
11.86861,-1245.69952
11.87404,-1246.48874
11.87946,-1247.12635
11.88489,-1247.75508
11.89031,-1248.33991
11.89574,-1248.89811
11.90117,-1249.36585
11.90659,-1249.8293
11.91202,-1250.25669
11.91745,-1250.60464
11.92287,-1250.91838
11.9283,-1251.21042
11.93372,-1251.47265
11.93915,-1251.64678
11.94458,-1251.83759
11.95,-1252.02794
11.95543,-1252.19009
11.96085,-1252.32512
11.96628,-1252.45502
11.97171,-1252.60397
11.97713,-1252.71866
11.98256,-1252.78159
11.98798,-1252.73755
11.99341,-1252.75545
11.99884,-1252.78219
12.00426,-1252.88555
12.00969,-1252.89361
12.01511,-1252.82486
12.02054,-1252.75486
12.02597,-1252.65303
12.03139,-1252.5558
12.03682,-1252.40586
12.04224,-1252.30597
12.04767,-1252.10996
12.0531,-1251.89485
12.05852,-1251.67665
12.06395,-1251.36951
12.06937,-1251.03437
12.0748,-1250.71015
12.08023,-1250.4318
12.08565,-1250.01179
12.09108,-1249.61854
12.0965,-1249.16305
12.10193,-1248.65728
12.10736,-1248.04263
12.11278,-1247.40278
12.11821,-1246.70328
12.12363,-1245.90229
12.12906,-1245.08626
12.13449,-1244.21801
12.13991,-1243.30036
12.14534,-1242.27999
12.15076,-1241.22587
12.15619,-1240.11414
12.16162,-1239.04904
12.16704,-1237.92451
12.17247,-1236.8648
12.17789,-1235.76731
12.18332,-1234.67442
12.18875,-1233.63394
12.19417,-1232.64807
12.1996,-1231.78953
12.20502,-1231.00064
12.21045,-1230.28518
