Angle,Intensity
3.02,2383.4
3.04,2298.6
3.06,2350.4
3.08,2262.8
3.1,2184.8
3.12,2201.5
3.14,2218.3
3.16,2129.5
3.18,2052.2
3.2,2028.2
3.22,2035.8
3.24,1988.4
3.26,1966.6
3.28,1971.4
3.3,1954.7
3.32,1920.1
3.34,1906.3
3.36,1886.1
3.38,1806.1
3.4,1872.5
3.42,1808.7
3.44,1742.8
3.46,1818.7
3.48,1852.2
3.5,1776.1
3.52,1714.5
3.54,1746
3.56,1806.2
3.58,1808.9
3.6,1769.3
3.62,1711.9
3.64,1724.8
3.66,1687.1
3.68,1638
3.7,1611.4
3.72,1676.9
3.74,1654.8
3.76,1653.3
3.78,1664.5
3.8,1647.8
3.82,1618
3.84,1607.5
3.86,1615.2
3.88,1636.8
3.9,1623.9
3.92,1633.3
3.94,1656.5
3.96,1678.2
3.98,1600.5
4,1620.3
4.02,1663
4.04,1694.9
4.06,1716.2
4.08,1723.1
4.1,1742.5
4.12,1761.3
4.14,1717.2
4.16,1700.6
4.18,1690.7
4.2,1678.7
4.22,1654.4
4.24,1709.1
4.26,1671.4
4.28,1630
4.3,1701.9
4.32,1682.9
4.34,1711.3
4.36,1734.2
4.38,1713.3
4.4,1687.4
4.42,1663.8
4.44,1649.3
4.46,1656.1
4.48,1735.3
4.5,1733.3
4.52,1673
4.54,1606
4.56,1680.7
4.58,1679.3
4.6,1691.1
4.62,1705.3
4.64,1670.3
4.66,1644.5
4.68,1610.8
4.7,1605
4.72,1672.8
4.74,1657.1
4.76,1627
4.78,1592.7
4.8,1568.6
4.82,1648.6
4.84,1647.5
4.86,1644.1
4.88,1665
4.9,1613.9
4.92,1568.4
4.94,1580.5
4.96,1628.6
4.98,1576
5,1626.4
5.02,1610.1
5.04,1559.4
5.06,1611.2
5.08,1587.5
5.1,1594.2
5.12,1604.9
5.14,1571.4
5.16,1585.3
5.18,1582.8
5.2,1597.8
5.22,1652.7
5.24,1605.5
5.26,1623.8
5.28,1639
5.3,1628.5
5.32,1705.4
5.34,1620.2
5.36,1570.8
5.38,1601.5
5.4,1622.1
5.42,1626.3
5.44,1616.6
5.46,1605.7
5.48,1621.7
5.5,1633.5
5.52,1650.9
5.54,1653.1
5.56,1608.9
5.58,1584.1
5.6,1632.9
5.62,1689.1
5.64,1691.2
5.66,1672.2
5.68,1723
5.7,1750.3
5.72,1701.2
5.74,1594.5
5.76,1633.9
5.78,1670.3
5.8,1668.9
5.82,1711.6
5.84,1692.1
5.86,1675.5
5.88,1672.7
5.9,1675.7
5.92,1728.7
5.94,1730.6
5.96,1702.2
5.98,1692.3
6,1701.6
6.02,1736.1
6.04,1767
6.06,1767.4
6.08,1778.8
6.1,1864.2
6.12,1914.4
6.14,1873.3
6.16,1855
6.18,1910.4
6.2,1973.8
6.22,2008
6.24,1962.3
6.26,2065.8
6.28,2154.9
6.3,2199.4
6.32,2220
6.34,2287.9
6.36,2355.2
6.38,2437.3
6.4,2569.1
6.42,2800.6
6.44,2995.8
6.46,3253.9
6.48,3670.8
6.5,3790.4
6.52,3367.6
6.54,2696.2
6.56,2026.2
6.58,1828.2
6.6,1730.1
6.62,1685.7
6.64,1666.7
6.66,1630.1
6.68,1599.3
6.7,1620.6
6.72,1671.9
6.74,1656.6
6.76,1572.7
6.78,1577.3
6.8,1624.3
6.82,1595.3
6.84,1565.7
6.86,1563.3
6.88,1567.2
6.9,1553.5
6.92,1584.7
6.94,1563
6.96,1552.3
6.98,1590.7
7,1586.9
7.02,1547.1
7.04,1522.8
7.06,1532
7.08,1546.5
7.1,1563.4
7.12,1559.9
7.14,1532.1
7.16,1487.2
7.18,1519.1
7.2,1520.9
7.22,1511
7.24,1553.7
7.26,1536.5
7.28,1537.2
7.3,1540.9
7.32,1525.4
7.34,1589.4
7.36,1555.1
7.38,1509.6
7.4,1517.6
7.42,1541.2
7.44,1577.5
7.46,1570.7
7.48,1516.7
7.5,1545.7
7.52,1567.8
7.54,1563.5
7.56,1536.5
7.58,1518.3
7.6,1544.7
7.62,1547.8
7.64,1543.1
7.66,1583.5
7.68,1575.3
7.7,1557.2
7.72,1536.5
7.74,1519
7.76,1499.2
7.78,1542.1
7.8,1573.7
7.82,1539.8
7.84,1536
7.86,1550.9
7.88,1587.4
7.9,1633.2
7.92,1601.2
7.94,1576.6
7.96,1532.3
7.98,1485.6
8,1527.5
8.02,1546.2
8.04,1537.8
8.06,1510.7
8.08,1484.8
8.1,1548.8
8.12,1579.3
8.14,1620.4
8.16,1743.8
8.18,1638.7
8.2,1657.6
8.22,1723.2
8.24,1759.8
8.26,1696.6
8.28,1689.6
8.3,1695.4
8.32,1699.7
8.34,1769.1
8.36,1748.3
8.38,1771.1
8.4,1855.2
8.42,1897.1
8.44,1982.2
8.46,2046.5
8.48,2098.6
8.5,2187
8.52,2299.9
8.54,2392.7
8.56,2509.5
8.58,2718.1
8.6,3068.8
8.62,3404.9
8.64,3761.1
8.66,4118.3
8.68,3324.8
8.7,2533.4
8.72,1949.9
8.74,1678.2
8.76,1592.9
8.78,1628
8.8,1617.9
8.82,1551.9
8.84,1630.3
8.86,1579.1
8.88,1530.7
8.9,1521.3
8.92,1571.6
8.94,1604.5
8.96,1606
8.98,1574
9,1507.8
9.02,1595.7
9.04,1630
9.06,1643.3
9.08,1670.8
9.1,1635
9.12,1690.3
9.14,1708.3
9.16,1633.6
9.18,1682.4
9.2,1716.2
9.22,1759.9
9.24,1805.6
9.26,1777.4
9.28,1800.6
9.3,1894.3
9.32,2017.8
9.34,2053.6
9.36,2101
9.38,2216.8
9.4,2353
9.42,2421.6
9.44,2529.1
9.46,2660.8
9.48,2802.7
9.5,2943.8
9.52,3209.6
9.54,3443.4
9.56,3670.3
9.58,3922.2
9.6,4341.1
9.62,4922.5
9.64,5554.1
9.66,6271.4
9.68,7468.6
9.7,8944.8
9.72,10123
9.74,10255.3
9.76,7644.5
9.78,4838.1
9.8,2994.4
9.82,2123
9.84,1970.7
9.86,1814
9.88,1723.2
9.9,1665.9
9.92,1603
9.94,1603.8
9.96,1608.8
9.98,1591.3
10,1539.3
10.02,1531
10.04,1587.8
10.06,1632.4
10.08,1623.1
10.1,1523.4
10.12,1498.5
10.14,1485.8
10.16,1484.7
10.18,1543.4
10.2,1591.2
10.22,1583.9
10.24,1549.4
10.26,1550.9
10.28,1526.5
10.3,1499.1
10.32,1484.9
10.34,1500
10.36,1499.2
10.38,1518.6
10.4,1518.2
10.42,1474.2
10.44,1462
10.46,1482.6
10.48,1521.6
10.5,1553.6
10.52,1473.6
10.54,1471.5
10.56,1493.2
10.58,1515.6
10.6,1513.3
10.62,1490.3
10.64,1506.1
10.66,1534.3
10.68,1503.9
10.7,1527
10.72,1552.7
10.74,1545.2
10.76,1466
10.78,1504.1
10.8,1492.5
10.82,1484.1
10.84,1516.7
10.86,1511.3
10.88,1508.9
10.9,1515.6
10.92,1530.9
10.94,1530.1
10.96,1496.1
10.98,1487.8
11,1508.6
11.02,1506.3
11.04,1525.2
11.06,1526.5
11.08,1497.9
11.1,1427.8
11.12,1448.5
11.14,1480.6
11.16,1505.9
11.18,1509
11.2,1487.9
11.22,1477.9
11.24,1474.2
11.26,1471.8
11.28,1468
11.3,1470.4
11.32,1477.2
11.34,1490.9
11.36,1534.3
11.38,1504
11.4,1485.7
11.42,1484
11.44,1409.3
11.46,1426.6
11.48,1431.8
11.5,1430.7
11.52,1480.2
11.54,1506.5
11.56,1496.5
11.58,1452.1
11.6,1378.2
11.62,1427.2
11.64,1445.5
11.66,1438.6
11.68,1416.2
11.7,1420.8
11.72,1478.8
11.74,1508.1
11.76,1471.4
11.78,1446.2
11.8,1465.7
11.82,1450.3
11.84,1386.4
11.86,1334.6
11.88,1373.8
11.9,1399.4
11.92,1397.6
11.94,1386.9
11.96,1393
11.98,1435.4
12,1482
12.02,1482
12.04,1447.1
12.06,1411.8
12.08,1393.2
12.1,1404.7
12.12,1397.1
12.14,1358.7
12.16,1341.2
12.18,1367.3
12.2,1360.5
12.22,1358.4
12.24,1346.5
12.26,1326.2
12.28,1327.8
12.3,1347.3
12.32,1345.9
12.34,1331.7
12.36,1348.4
12.38,1419
12.4,1417.5
12.42,1373.5
12.44,1357.5
12.46,1372.5
12.48,1357.1
12.5,1344.8
12.52,1369.6
12.54,1354.4
12.56,1369.6
12.58,1383.9
12.6,1374.2
12.62,1319.3
12.64,1334.2
12.66,1366
12.68,1375.2
12.7,1276.2
12.72,1305.8
12.74,1349.1
12.76,1372.1
12.78,1358.4
12.8,1343.3
12.82,1343.7
12.84,1355.1
12.86,1366.5
12.88,1356.1
12.9,1356.4
12.92,1378.2
12.94,1428.5
12.96,1401.8
12.98,1403.1
13,1438.5
13.02,1502.8
13.04,1499.7
13.06,1541
13.08,1580.7
13.1,1602.5
13.12,1627.7
13.14,1699.4
13.16,1739.8
13.18,1755.3
13.2,1826.1
13.22,1901
13.24,1997.4
13.26,2115.6
13.28,2251.1
13.3,2471.3
13.32,2723.6
13.34,3008.7
13.36,3328.3
13.38,3546.1
13.4,3978.4
13.42,4554.3
13.44,5198
13.46,5674.7
13.48,5821.8
13.5,5533.4
13.52,4806.7
13.54,3904.2
13.56,3022.9
13.58,2388.8
13.6,2030.8
13.62,1838.1
13.64,1721.2
13.66,1681.9
13.68,1654.6
13.7,1511.4
13.72,1513
13.74,1502.7
13.76,1499.7
13.78,1540.1
13.8,1590.4
13.82,1628.6
13.84,1678.8
13.86,1761.6
13.88,1898.7
13.9,1912.4
13.92,1789.9
13.94,1553.5
13.96,1379.9
13.98,1309.3
14,1271.2
14.02,1238.1
14.04,1190.2
14.06,1154.1
14.08,1202.4
14.1,1281.1
14.12,1252.9
14.14,1229.7
14.16,1182.8
14.18,1170.1
14.2,1268.4
14.22,1186.5
14.24,1178.1
14.26,1197.5
14.28,1204.2
14.3,1208.8
14.32,1210.6
14.34,1195.3
14.36,1165.5
14.38,1187.6
14.4,1228.7
14.42,1248.3
14.44,1242.8
14.46,1247.4
14.48,1338.7
14.5,1370.9
14.52,1378.9
14.54,1500.7
14.56,1519.9
14.58,1586.8
14.6,1681.7
14.62,1757.9
14.64,1841.5
14.66,1814.8
14.68,1717.3
14.7,1590.3
14.72,1466.2
14.74,1350.4
14.76,1257.5
14.78,1195.5
14.8,1162.8
14.82,1183.8
14.84,1187.4
14.86,1165.2
14.88,1184.2
14.9,1140.8
14.92,1125.9
14.94,1134.1
14.96,1108.2
14.98,1147.1
15,1197.1
15.02,1233.7
15.04,1229.1
15.06,1278.1
15.08,1353.6
15.1,1454
15.12,1576.1
15.14,1684.2
15.16,1814.4
15.18,1992.5
15.2,2243.9
15.22,2649.9
15.24,3013.3
15.26,3203
15.28,3107.9
15.3,2466.6
15.32,1942
15.34,1524.7
15.36,1226.3
15.38,1082.4
15.4,999.9
15.42,993
15.44,1008.3
15.46,959.6
15.48,997.1
15.5,989.5
15.52,960.4
15.54,940.5
15.56,993.9
15.58,968.6
15.6,930.7
15.62,922.4
15.64,937.6
15.66,919.1
15.68,915.3
15.7,935.8
15.72,934.2
15.74,936.6
15.76,941.6
15.78,939.1
15.8,901.8
15.82,915.8
15.84,917.3
15.86,914.8
15.88,936.1
15.9,912.9
15.92,920.3
15.94,937
15.96,936.6
15.98,916.8
16,899.7
16.02,910.7
16.04,954.8
16.06,903
16.08,900.9
16.1,929.9
16.12,964.4
16.14,917.9
16.16,893.6
16.18,875
16.2,860.2
16.22,856.4
16.24,887.2
16.26,915.2
16.28,932.2
16.3,933
16.32,929.4
16.34,891.1
16.36,867.1
16.38,913
16.4,916.1
16.42,939.9
16.44,930.3
16.46,858.4
16.48,850.8
16.5,880.3
16.52,887.3
16.54,858.3
16.56,868.2
16.58,852.5
16.6,858.2
16.62,891.7
16.64,931.3
16.66,887
16.68,839.6
16.7,814.3
16.72,834.8
16.74,845.3
16.76,856.7
16.78,859.2
16.8,841.1
16.82,874.6
16.84,856.1
16.86,821.1
16.88,799.8
16.9,812
16.92,796.1
16.94,781
16.96,789.3
16.98,871.6
17,846.8
17.02,814
17.04,806.8
17.06,838
17.08,859.3
17.1,862.5
17.12,850.1
17.14,830.3
17.16,856.8
17.18,875.6
17.2,885.9
17.22,892
17.24,859.4
17.26,880.2
17.28,917.2
17.3,939.1
17.32,958.1
17.34,1038.3
17.36,1118.3
17.38,1162.8
17.4,1152.1
17.42,1103.5
17.44,1020.9
17.46,925.1
17.48,886.2
17.5,908
17.52,957.3
17.54,1016.9
17.56,1062.6
17.58,1058.9
17.6,1049.9
17.62,1056.7
17.64,1102.4
17.66,1066.9
17.68,1027.3
17.7,974.6
17.72,905.1
17.74,907.4
17.76,872.8
17.78,840.8
17.8,830.8
17.82,819.3
17.84,817
17.86,802.7
17.88,781.5
17.9,802
17.92,840.9
17.94,861.7
17.96,852.9
17.98,805
18,796.1
18.02,800.4
18.04,813.1
18.06,830.6
18.08,813.1
18.1,816.6
18.12,825.7
18.14,826.2
18.16,855.9
18.18,879.5
18.2,879.4
18.22,852.7
18.24,859.5
18.26,857.4
18.28,867.3
18.3,884.7
18.32,858.1
18.34,845
18.36,823.7
18.38,801.7
18.4,809.3
18.42,801.7
18.44,783.5
18.46,760.2
18.48,739.6
18.5,758.9
18.52,780.5
18.54,801.3
18.56,817.8
18.58,777.4
18.6,758.9
18.62,761.6
18.64,781.6
18.66,787.7
18.68,769.4
18.7,754.9
18.72,754.6
18.74,765.3
18.76,761.9
18.78,775.8
18.8,793
18.82,755.7
18.84,759.5
18.86,778.2
18.88,795.3
18.9,789.2
18.92,719.4
18.94,731.5
18.96,765.4
18.98,752.8
19,787.8
19.02,802.9
19.04,802.2
19.06,792.2
19.08,806.7
19.1,838.7
19.12,841.9
19.14,816.3
19.16,859.7
19.18,913.8
19.2,939
19.22,937.7
19.24,946.1
19.26,1013.6
19.28,1059.6
19.3,1101.5
19.32,1189.8
19.34,1266.6
19.36,1274
19.38,1249.3
19.4,1238.6
19.42,1284.3
19.44,1331.6
19.46,1383.4
19.48,1451
19.5,1637.5
19.52,1933.8
19.54,2260.9
19.56,2630.9
19.58,3301.1
19.6,3980.1
19.62,4597.3
19.64,4911.5
19.66,4237.5
19.68,3327.3
19.7,2524.1
19.72,1848.7
19.74,1241.7
19.76,992.9
19.78,900.8
19.8,893.2
19.82,896.8
19.84,851.8
19.86,778.9
19.88,754.6
19.9,822.8
19.92,789.3
19.94,807.4
19.96,802.5
19.98,753.7
20,751.4
20.02,770.2
20.04,779.3
20.06,770.6
20.08,746.9
20.1,782
20.12,787.7
20.14,769.2
20.16,766.2
20.18,756
20.2,755.3
20.22,742.9
20.24,691.2
20.26,765.4
20.28,782.7
20.3,788.9
20.32,815
20.34,745.7
20.36,766.6
20.38,784.2
20.4,760.8
20.42,767.7
20.44,778.8
20.46,786.1
20.48,779.2
20.5,730.5
20.52,721.4
20.54,730.5
20.56,749.9
20.58,770.5
20.6,779.1
20.62,764.7
20.64,759.5
20.66,807.4
20.68,756.8
20.7,744.1
20.72,739.2
20.74,718.5
20.76,768.7
20.78,756.8
20.8,738.6
20.82,744.1
20.84,763.1
20.86,782.8
20.88,779.7
20.9,758.8
20.92,769.5
20.94,748.1
20.96,744.3
20.98,767.7
21,817.9
21.02,854.9
21.04,866.2
21.06,840.2
21.08,762.5
21.1,806.5
21.12,811.3
21.14,791
21.16,763.5
21.18,750.5
21.2,779.2
21.22,791.1
21.24,759
21.26,739.2
21.28,731.4
21.3,755.5
21.32,801.4
21.34,797.6
21.36,806.1
21.38,844.1
21.4,899.7
21.42,933.9
21.44,900.2
21.46,881.7
21.48,867.5
21.5,827.1
21.52,810.5
21.54,805
21.56,796.1
21.58,771
21.6,771
21.62,768.8
21.64,780
21.66,807.1
21.68,787.3
21.7,816.9
21.72,835.7
21.74,818.1
21.76,754.2
21.78,777.3
21.8,776.3
21.82,756.8
21.84,802.5
21.86,811.8
21.88,792.9
21.9,772.5
21.92,792.3
21.94,803.3
21.96,794.1
21.98,802.1
22,862.9
22.02,859.9
22.04,908.3
22.06,963.6
22.08,1004.6
22.1,1118.1
22.12,1189.3
22.14,1319.9
22.16,1538.8
22.18,1777.2
22.2,2172.8
22.22,2612.4
22.24,3102.8
22.26,3744.8
22.28,4763.3
22.3,5921.1
22.32,6947.9
22.34,7429.2
22.36,6357.5
22.38,5060
22.4,3793.6
22.42,2764.6
22.44,1780.7
22.46,1235.4
22.48,1004.4
22.5,966.9
22.52,835.2
22.54,808.7
22.56,816.5
22.58,828.1
22.6,851
22.62,814.2
22.64,795.1
22.66,802.8
22.68,802.1
22.7,789.2
22.72,800.9
22.74,813.7
22.76,774.1
22.78,783.5
22.8,796.7
22.82,806.7
22.84,809
22.86,813.6
22.88,837.7
22.9,860.9
22.92,873.2
22.94,949.3
22.96,983.5
22.98,1000.7
23,1014.6
23.02,1034.4
23.04,1053.5
23.06,1067.6
23.08,1094.5
23.1,1197.3
23.12,1236.7
23.14,1293.8
23.16,1399.6
23.18,1589.2
23.2,1716.7
23.22,1878.1
23.24,2015.9
23.26,2051
23.28,1981.8
23.3,1795.5
23.32,1595
23.34,1459
23.36,1291.5
23.38,1168.3
23.4,1051.2
23.42,936.8
23.44,926.9
23.46,948.4
23.48,931.4
23.5,868.4
23.52,809.7
23.54,853.6
23.56,901.1
23.58,930
23.6,930
23.62,1044.7
23.64,1137.1
23.66,1226.6
23.68,1353.8
23.7,1398
23.72,1441.9
23.74,1455
23.76,1409
23.78,1271.9
23.8,1141
23.82,1017.1
23.84,905.3
23.86,836.8
23.88,802.9
23.9,790.4
23.92,788.9
23.94,776.7
23.96,759.3
23.98,776.8
24,799.6
24.02,742.5
24.04,776.6
24.06,794.4
24.08,791.1
24.1,774.3
24.12,697.7
24.14,741.3
24.16,787.7
24.18,732.2
24.2,713.9
24.22,723.4
24.24,750.5
24.26,782.8
24.28,771.4
24.3,732.9
24.32,730.8
24.34,765.6
24.36,745.1
24.38,770.5
24.4,803.6
24.42,828.3
24.44,825.3
24.46,830.6
24.48,839.8
24.5,846.5
24.52,841.1
24.54,856.6
24.56,861.5
24.58,871.1
24.6,898.1
24.62,871.4
24.64,871.7
24.66,859.3
24.68,816.3
24.7,798.8
24.72,780.1
24.74,768.6
24.76,762.7
24.78,741.3
24.8,740.6
24.82,779.1
24.84,847.6
24.86,910
24.88,885
24.9,896.7
24.92,915.5
24.94,870.6
24.96,847
24.98,826.1
25,798.3
25.02,756.5
25.04,776.3
25.06,777.7
25.08,783.7
25.1,808.2
25.12,834.1
25.14,865.9
25.16,873.8
25.18,861.6
25.2,906.6
25.22,939.4
25.24,1022.3
25.26,1135.8
25.28,1183.1
25.3,1224.8
25.32,1238.9
25.34,1212.8
25.36,1130.6
25.38,1070.9
25.4,1027.5
25.42,1029.4
25.44,1105.4
25.46,1126.7
25.48,1224.2
25.5,1382
25.52,1591
25.54,1885
25.56,2252.4
25.58,2705.4
25.6,3260.9
25.62,3978.3
25.64,5007.8
25.66,6285.9
25.68,7628.8
25.7,8537.4
25.72,8127.2
25.74,7093.2
25.76,5779.4
25.78,4631.7
25.8,3336
25.82,2306.3
25.84,1608.8
25.86,1280.8
25.88,1150.6
25.9,1044.2
25.92,969.3
25.94,932
25.96,945.7
25.98,924.8
26,902.9
26.02,903
26.04,963.9
26.06,978.7
26.08,986.4
26.1,1017.6
26.12,1135.7
26.14,1241
26.16,1405.8
26.18,1611.9
26.2,1801.5
26.22,2092.8
26.24,2311.4
26.26,2558.9
26.28,2973.3
26.3,3539.9
26.32,4114.4
26.34,4540.2
26.36,4662
26.38,4026
26.4,3396.9
26.42,2808.6
26.44,2265.6
26.46,1689.8
26.48,1236.7
26.5,989
26.52,924.8
26.54,879.8
26.56,825
26.58,808.5
26.6,801.2
26.62,724.3
26.64,766.5
26.66,780.4
26.68,761.2
26.7,719.3
26.72,818
26.74,798.8
26.76,748.5
26.78,741.6
26.8,733.2
26.82,751.8
26.84,767.7
26.86,768.6
26.88,782.3
26.9,791.1
26.92,818
26.94,848.1
26.96,797.1
26.98,832.7
27,825.3
27.02,805.2
27.04,895
27.06,905.5
27.08,924.2
27.1,962.1
27.12,1023
27.14,1113.1
27.16,1165.5
27.18,1175.6
27.2,1142.3
27.22,1081.4
27.24,1060.5
27.26,1044.3
27.28,1012.8
27.3,973.2
27.32,957.8
27.34,973.4
27.36,1015.8
27.38,1057
27.4,1118.9
27.42,1190.1
27.44,1282.1
27.46,1427.5
27.48,1557
27.5,1782
27.52,2051
27.54,2269.6
27.56,2739.1
27.58,3137
27.6,3539.3
27.62,4011.7
27.64,4142.7
27.66,4085.9
27.68,3850.1
27.7,3470
27.72,3181.4
27.74,2919
27.76,2705.1
27.78,2570.3
27.8,2609.9
27.82,2851.5
27.84,3139.1
27.86,3305.5
27.88,3010.8
27.9,2585.7
27.92,2240.9
27.94,1941.2
27.96,1591.7
27.98,1293.6
28,1084
28.02,967.4
28.04,940.8
28.06,859.3
28.08,846.9
28.1,834.3
28.12,787.4
28.14,814
28.16,807
28.18,810.3
28.2,832.1
28.22,826
28.24,838.4
28.26,873.9
28.28,925.3
28.3,969.5
28.32,1047.1
28.34,1065.9
28.36,1034.6
28.38,988.9
28.4,949.1
28.42,905.5
28.44,853.5
28.46,789.2
28.48,749.6
28.5,696.6
28.52,682.3
28.54,731.9
28.56,730.4
28.58,716
28.6,711.5
28.62,715.3
28.64,668.1
28.66,714.9
28.68,747.8
28.7,757
28.72,796.6
28.74,845.7
28.76,868.8
28.78,885.4
28.8,940.2
28.82,972.7
28.84,1001.5
28.86,1017.5
28.88,1009.2
28.9,933
28.92,874.9
28.94,830.5
28.96,795.1
28.98,754.7
29,736.9
29.02,733.4
29.04,737.1
29.06,730.2
29.08,683.4
29.1,662.2
29.12,680.1
29.14,722
29.16,689.5
29.18,685.3
29.2,698.8
29.22,678.2
29.24,657.6
29.26,663.4
29.28,667.7
29.3,635
29.32,635.8
29.34,665.4
29.36,682.5
29.38,660
29.4,675.2
29.42,657.9
29.44,642.3
29.46,648.6
29.48,693.5
29.5,684.7
29.52,682
29.54,700.4
29.56,729.3
29.58,718.4
29.6,718.7
29.62,713.6
29.64,651.2
29.66,686.1
29.68,674.1
29.7,639.7
29.72,629.1
29.74,668.4
29.76,696
29.78,684.8
29.8,621.3
29.82,645.7
29.84,659.3
29.86,658.1
29.88,646
29.9,663.5
29.92,675.6
29.94,667.6
29.96,653.7
29.98,703.2
30,644.2
30.02,646.5
30.04,692.7
30.06,674.4
30.08,671.6
30.1,661.7
30.12,656.2
30.14,673.7
30.16,644
30.18,638.6
30.2,649.3
30.22,665.5
30.24,654.8
30.26,671.5
30.28,696
30.3,718.8
30.32,754.6
30.34,764.4
30.36,775.5
30.38,802.2
30.4,863.2
30.42,855.1
30.44,886.9
30.46,937.9
30.48,906.6
30.5,950.7
30.52,983.4
30.54,992.5
30.56,973.4
30.58,927.6
30.6,870
30.62,817.8
30.64,785.8
30.66,753
30.68,746.8
30.7,752.1
30.72,766.1
30.74,837.7
30.76,827.3
30.78,882.7
30.8,1009.6
30.82,994.3
30.84,1078.4
30.86,1236.5
30.88,1436
30.9,1608.1
30.92,1821
30.94,1995.5
30.96,2104.1
30.98,2118.5
31,2046
31.02,1888.7
31.04,1683.5
31.06,1469
31.08,1264.1
31.1,1071.8
31.12,905.3
31.14,780.1
31.16,758.8
31.18,734.5
31.2,702.6
31.22,670.8
31.24,683
31.26,676.7
31.28,658.4
31.3,631.9
31.32,602.9
31.34,609.6
31.36,606.4
31.38,601
31.4,615.4
31.42,588.9
31.44,600.7
31.46,625.3
31.48,631.6
31.5,614.1
31.52,578.8
31.54,577.4
31.56,635.6
31.58,655.4
31.6,623.7
31.62,592.8
31.64,580.6
31.66,563.9
31.68,576.2
31.7,594.8
31.72,606
31.74,586.2
31.76,573.1
31.78,563.6
31.8,564
31.82,586.9
31.84,598.9
31.86,588.4
31.88,585.9
31.9,624
31.92,547.1
31.94,528.8
31.96,558.9
31.98,619.2
32,594
32.02,598.4
32.04,607.4
32.06,608.3
32.08,595.3
32.1,576.7
32.12,581.7
32.14,599.9
32.16,574.1
32.18,576.4
32.2,602.4
32.22,628.7
32.24,612
32.26,579.4
32.28,549.2
32.3,543.8
32.32,586.9
32.34,562.5
32.36,529.7
32.38,534.3
32.4,600.8
32.42,582.5
32.44,580.3
32.46,591.7
32.48,605.7
32.5,563.8
32.52,580.8
32.54,588.8
32.56,577.1
32.58,577.9
32.6,580
32.62,560.5
32.64,535.1
32.66,543.5
32.68,563.2
32.7,574.8
32.72,573.4
32.74,555.1
32.76,562.6
32.78,574.9
32.8,584
32.82,585
32.84,602.5
32.86,584.9
32.88,568.7
32.9,574.2
32.92,610
32.94,615.2
32.96,617.7
32.98,634.3
33,692.2
33.02,709.2
33.04,729.6
33.06,746.1
33.08,725.5
33.1,698.6
33.12,695.5
33.14,697.1
33.16,674.3
33.18,669.5
33.2,669
33.22,667
33.24,659.3
33.26,666.2
33.28,659.6
33.3,644.3
33.32,633
33.34,697.8
33.36,718.3
33.38,707.9
33.4,682.3
33.42,683.8
33.44,676.8
33.46,661.4
33.48,636.4
33.5,599.1
33.52,572.2
33.54,572.6
33.56,583
33.58,576.1
33.6,575.3
33.62,546.6
33.64,515.5
33.66,507.4
33.68,544
33.7,533
33.72,520.7
33.74,527.7
33.76,495
33.78,529.4
33.8,536.8
33.82,505.2
33.84,531.1
33.86,568.6
33.88,561.7
33.9,527.4
33.92,538
33.94,521.7
33.96,501.3
33.98,492.3
34,514.3
34.02,549.7
34.04,552.5
34.06,559
34.08,604.1
34.1,607.1
34.12,618.4
34.14,633.8
34.16,652.1
34.18,685.6
34.2,669.9
34.22,620.6
34.24,561.5
34.26,571.4
34.28,583.2
34.3,575
34.32,541
34.34,480
34.36,506.2
34.38,519.2
34.4,526.8
34.42,562.6
34.44,544.2
34.46,521.7
34.48,514.7
34.5,540
34.52,540
34.54,580.5
34.56,604.1
34.58,580.7
34.6,600.5
34.62,598.5
34.64,601
34.66,619.5
34.68,657.6
34.7,641.8
34.72,617.6
34.74,593.7
34.76,563.3
34.78,590.6
34.8,585.1
34.82,563.4
34.84,576.4
34.86,554.5
34.88,553.8
34.9,559.8
34.92,553.5
34.94,587
34.96,566.6
34.98,535.9
35,525.7
35.02,521.1
35.04,553.7
35.06,591
35.08,614.9
35.1,606.5
35.12,618.2
35.14,673.8
35.16,760.1
35.18,816.5
35.2,843.2
35.22,854.3
35.24,833.6
35.26,746.8
35.28,698.1
35.3,659.3
35.32,640.1
35.34,652.7
35.36,606.3
35.38,534
35.4,498.5
35.42,540.1
35.44,556.1
35.46,546.8
35.48,533
35.5,524
35.52,516.4
35.54,524.3
35.56,548.3
35.58,587.2
35.6,635.9
35.62,642
35.64,670.3
35.66,739
35.68,863.1
35.7,953.7
35.72,1104.7
35.74,1245.6
35.76,1279.9
35.78,1225.3
35.8,1139.7
35.82,1025.5
35.84,892
35.86,840.2
35.88,797.5
35.9,738.1
35.92,653.3
35.94,571.8
35.96,567.1
35.98,554.8
36,516.3
36.02,479
36.04,483.2
36.06,504
36.08,516.6
36.1,477.8
36.12,532.9
36.14,532.2
36.16,498.9
36.18,482.2
36.2,485
36.22,507.1
36.24,530.6
36.26,539.2
36.28,522.4
36.3,536.5
36.32,535.5
36.34,507
36.36,543.6
36.38,565
36.4,564.4
36.42,556.5
36.44,606
36.46,639.8
36.48,664.4
36.5,690
36.52,737.2
36.54,754.3
36.56,794.2
36.58,831.8
36.6,824.1
36.62,756.8
36.64,741.1
36.66,738
36.68,710.9
36.7,709.4
36.72,653
36.74,577.6
36.76,516.2
36.78,557.3
36.8,539.6
36.82,536.9
36.84,566.6
36.86,588.7
36.88,624.4
36.9,655.5
36.92,666.3
36.94,627.5
36.96,599.7
36.98,607.7
37,635.9
37.02,656.4
37.04,660
37.06,639.4
37.08,619.8
37.1,623.3
37.12,571.5
37.14,568
37.16,566.5
37.18,544.4
37.2,558.8
37.22,528.7
37.24,505.6
37.26,503
37.28,490.1
37.3,479
37.32,482.5
37.34,492.5
37.36,481.1
37.38,479.3
37.4,471.8
37.42,468.3
37.44,487.3
37.46,468.9
37.48,470.9
37.5,473.6
37.52,455.1
37.54,458.1
37.56,469.8
37.58,478.4
37.6,476.2
37.62,467.1
37.64,462.1
37.66,456.9
37.68,450.3
37.7,445.8
37.72,438
37.74,425.3
37.76,414.5
37.78,426.7
37.8,459.3
37.82,460.3
37.84,440.8
37.86,432.4
37.88,457.5
37.9,469
37.92,469
37.94,462.7
37.96,444.4
37.98,429.4
38,418.9
38.02,419.4
38.04,489.5
38.06,475.8
38.08,469.1
38.1,492.3
38.12,451.2
38.14,442.7
38.16,433.8
38.18,427.8
38.2,462.1
38.22,457.9
38.24,458.4
38.26,462.6
38.28,457.3
38.3,445.5
38.32,445.3
38.34,445.4
38.36,431.4
38.38,481.6
38.4,478
38.42,468.8
38.44,485.9
38.46,454.6
38.48,432
38.5,446.9
38.52,489.8
38.54,426.6
38.56,431.2
38.58,465.9
38.6,493.5
38.62,428
38.64,461.4
38.66,488
38.68,482
38.7,426.4
38.72,460.9
38.74,469.8
38.76,448
38.78,400
38.8,437.3
38.82,432.8
38.84,438.5
38.86,488.2
38.88,458.5
38.9,450.4
38.92,454.3
38.94,461.2
38.96,445.9
38.98,430.7
39,441.5
39.02,472
39.04,472
39.06,473.3
39.08,478.7
39.1,483.3
39.12,476.5
39.14,435.6
39.16,432.6
39.18,446.8
39.2,443
39.22,455.8
39.24,464.6
39.26,486.2
39.28,530.3
39.3,517.4
39.32,520.2
39.34,505.6
39.36,464.6
39.38,460.8
39.4,478.3
39.42,487.8
39.44,488.9
39.46,517.1
39.48,530.2
39.5,527.5
39.52,511.6
39.54,488.8
39.56,469.5
39.58,476.8
39.6,502.8
39.62,532.5
39.64,512.8
39.66,508.5
39.68,529.2
39.7,576.2
39.72,535.1
39.74,503.4
39.76,476.2
39.78,454.3
39.8,466.5
39.82,452.1
39.84,450.1
39.86,465.1
39.88,459.8
39.9,424
39.92,405.4
39.94,412.9
39.96,443.3
39.98,413.3
40,407.2
40.02,418.3
40.04,422.9
40.06,431.9
40.08,430.5
40.1,430.5
40.12,442.9
40.14,439.1
40.16,432
40.18,423.9
40.2,419.3
40.22,443.7
40.24,422.8
40.26,411.8
40.28,426.5
40.3,442.5
40.32,454.6
40.34,454.7
40.36,441.9
40.38,418.3
40.4,456.6
40.42,452
40.44,441.4
40.46,503.8
40.48,509.7
40.5,483.7
40.52,467.9
40.54,502.5
40.56,523.1
40.58,538.8
40.6,566.2
40.62,606.7
40.64,568.6
40.66,544.1
40.68,526
40.7,509.5
40.72,485.9
40.74,452.7
40.76,448.7
40.78,465
40.8,450.5
40.82,444.2
40.84,441.6
40.86,437.3
40.88,423.6
40.9,411.3
40.92,437.4
40.94,461.9
40.96,440.6
40.98,417.7
41,411
41.02,412.8
41.04,418.3
41.06,435.1
41.08,408.7
41.1,399.8
41.12,426.3
41.14,443.1
41.16,419.6
41.18,420.4
41.2,444.5
41.22,436.9
41.24,444.8
41.26,438.5
41.28,428.8
41.3,443.3
41.32,431
41.34,423.6
41.36,430.8
41.38,460.7
41.4,427.2
41.42,441.4
41.44,483.4
41.46,531
41.48,502
41.5,474.8
41.52,460.7
41.54,462
41.56,462
41.58,453.3
41.6,451.8
41.62,453.8
41.64,431.7
41.66,417
41.68,445
41.7,487.1
41.72,475.7
41.74,492.2
41.76,481.8
41.78,465.4
41.8,473
41.82,457.8
41.84,447.2
41.86,454.6
41.88,484.7
41.9,464.2
41.92,440.8
41.94,429
41.96,428.5
41.98,392
42,414.6
42.02,419
42.04,401
42.06,428.4
42.08,420.7
42.1,423.5
42.12,423.1
42.14,374.3
42.16,387.3
42.18,400.6
42.2,406.8
42.22,403
42.24,410.6
42.26,403.7
42.28,391.4
42.3,382.7
42.32,395.6
42.34,399
42.36,401.6
42.38,407.7
42.4,413.8
42.42,399.1
42.44,399
42.46,417.3
42.48,424.9
42.5,401.7
42.52,384
42.54,377.9
42.56,381.7
42.58,391.8
42.6,377.9
42.62,362.9
42.64,382.7
42.66,402.5
42.68,397.2
42.7,393.1
42.72,411.9
42.74,410.4
42.76,384.4
42.78,388.2
42.8,441.2
42.82,452.6
42.84,467.1
42.86,474.3
42.88,474.4
42.9,482.8
42.92,474.2
42.94,464.1
42.96,448.7
42.98,412.1
43,406.2
43.02,421.5
43.04,439
43.06,432.2
43.08,385.9
43.1,370
43.12,383.6
43.14,419.3
43.16,372.9
43.18,366.1
43.2,390.1
43.22,426.6
43.24,371
43.26,378.1
43.28,387.1
43.3,377.5
43.32,361.5
43.34,378.3
43.36,389.4
43.38,386.7
43.4,371.4
43.42,392.1
43.44,388
43.46,372.9
43.48,379.8
43.5,394.7
43.52,391.5
43.54,378.3
43.56,365.3
43.58,374.4
43.6,387.3
43.62,391.4
43.64,379.9
43.66,366.9
43.68,375.2
43.7,398.5
43.72,424.8
43.74,410.4
43.76,401
43.78,391.4
43.8,381.2
43.82,372.9
43.84,393.9
43.86,409.3
43.88,400.7
43.9,344.3
43.92,364.6
43.94,374.5
43.96,371.2
43.98,357.4
44,377.2
44.02,411
44.04,426.6
44.06,407
44.08,407
44.1,388.3
44.12,377.1
44.14,384
44.16,405.3
44.18,421
44.2,441.3
44.22,468
44.24,497.7
44.26,500.3
44.28,537.7
44.3,584.2
44.32,577.3
44.34,645
44.36,695.7
44.38,745.4
44.4,817.8
44.42,892.5
44.44,936.8
44.46,968.6
44.48,996.3
44.5,959
44.52,957.5
44.54,962.7
44.56,956.1
44.58,912
44.6,782.9
44.62,686.8
44.64,643.5
44.66,610
44.68,577.8
44.7,522.5
44.72,455.6
44.74,406.8
44.76,395.4
44.78,384.3
44.8,394
44.82,451
44.84,441.8
44.86,428.5
44.88,424.7
44.9,441
44.92,472.2
44.94,487.4
44.96,504.7
44.98,531.8
45,562.3
45.02,592.7
45.04,642.2
45.06,691.7
45.08,657.4
45.1,714.1
45.12,713.5
45.14,676.6
45.16,699.5
45.18,652
45.2,604.6
45.22,577.7
45.24,589.9
45.26,583.2
45.28,571.1
45.3,564.8
45.32,572.3
45.34,576.8
45.36,570.1
45.38,575.8
45.4,602.9
45.42,628
45.44,601.2
45.46,566.1
45.48,542.1
45.5,548.2
45.52,531.9
45.54,522.6
45.56,512.2
45.58,471.1
45.6,458.1
45.62,435.4
45.64,415.8
45.66,421.9
45.68,421.2
45.7,421.5
45.72,412.7
45.74,386.7
45.76,357.7
45.78,365.1
45.8,379.6
45.82,384
45.84,374.9
45.86,391.2
45.88,390.2
45.9,367.1
45.92,361.8
45.94,385.1
45.96,388.9
45.98,377.4
46,383.5
46.02,415.4
46.04,420.3
46.06,417.7
46.08,444.4
46.1,461.4
46.12,460.4
46.14,442
46.16,409.6
46.18,426.4
46.2,434.3
46.22,421.6
46.24,390.7
46.26,418.1
46.28,424.6
46.3,420.3
46.32,414.4
46.34,429.7
46.36,408.8
46.38,409
46.4,428.3
46.42,429.9
46.44,461.8
46.46,487.3
46.48,506.1
46.5,524.4
46.52,586.2
46.54,675.9
46.56,757.6
46.58,798.9
46.6,895.6
46.62,920.3
46.64,875.3
46.66,775.8
46.68,740
46.7,716.6
46.72,692.9
46.74,658.6
46.76,590.1
46.78,568.8
46.8,551.4
46.82,530.1
46.84,511.8
46.86,481.2
46.88,462.2
46.9,447.3
46.92,419.1
46.94,455.3
46.96,472
46.98,466.9
47,443
47.02,442.2
47.04,421
47.06,402.1
47.08,396.5
47.1,353.8
47.12,359.2
47.14,371.4
47.16,370.6
47.18,347
47.2,375.2
47.22,375.1
47.24,347.2
47.26,353.3
47.28,354
47.3,358.4
47.32,366.8
47.34,377.5
47.36,372.9
47.38,384.1
47.4,388.8
47.42,361.1
47.44,371.8
47.46,375.5
47.48,386.6
47.5,414.7
47.52,451.2
47.54,459.4
47.56,470.6
47.58,491.5
47.6,480
47.62,444.8
47.64,426.5
47.66,430.3
47.68,437.2
47.7,427.9
47.72,437.7
47.74,447.6
47.76,411.1
47.78,378.1
47.8,365
47.82,357
47.84,335.1
47.86,357.2
47.88,328.2
47.9,309.5
47.92,341.5
47.94,318.7
47.96,326.2
47.98,340.3
48,353.3
48.02,387.6
48.04,381.6
48.06,370.6
48.08,360.7
48.1,337.9
48.12,354.3
48.14,373
48.16,377.6
48.18,347.9
48.2,353.8
48.22,385.9
48.24,407.2
48.26,372.1
48.28,394
48.3,403.6
48.32,405.7
48.34,404.4
48.36,394.5
48.38,406.2
48.4,418.6
48.42,422.3
48.44,424.6
48.46,477.1
48.48,519.4
48.5,552.4
48.52,649.9
48.54,716.4
48.56,791.5
48.58,863.6
48.6,891
48.62,823.9
48.64,739.4
48.66,687.7
48.68,726.5
48.7,630
48.72,584.1
48.74,577.1
48.76,590.5
48.78,537.9
48.8,474.2
48.82,425
48.84,407.3
48.86,437.8
48.88,429.4
48.9,436.2
48.92,461.9
48.94,449.7
48.96,468.9
48.98,465.9
49,447.8
49.02,455.4
49.04,429.4
49.06,414.3
49.08,409.6
49.1,408
49.12,399.1
49.14,407.2
49.16,407.8
49.18,380.5
49.2,391.9
49.22,377.8
49.24,359.6
49.26,349.6
49.28,345.8
49.3,337.2
49.32,338.9
49.34,354.9
49.36,379.3
49.38,371.4
49.4,366.6
49.42,369.5
49.44,371.8
49.46,399.7
49.48,398.8
49.5,390.8
49.52,418.2
49.54,405.7
49.56,396
49.58,399.9
49.6,424.7
49.62,414
49.64,415.4
49.66,408.2
49.68,387.3
49.7,423.1
49.72,411.4
49.74,400.5
49.76,400.8
49.78,373.4
49.8,374.8
49.82,372
49.84,362.3
49.86,359.3
49.88,348
49.9,349.3
49.92,360.6
49.94,373.5
49.96,337.4
49.98,325.5
